subject,condition,Fz,FCz,Cz,FC3,FC4,C3,C4,CP3,CP4,time_ms
3,1,-0.792583673469388,-0.21679693877551,-0.268565306122449,-1.39406632653061,-1.51790918367347,-0.546660204081633,-0.195542857142857,-0.276065306122449,-0.219698979591837,-1500.0
3,1,-0.627237755102041,-0.045273469387755,-0.0683122448979591,-1.04976326530612,-1.29217448979592,-0.478279591836735,-0.0700173469387754,-0.167463265306122,-0.0492122448979593,-1499.0234
3,1,-0.648235714285714,-0.225416326530612,-0.343937755102041,-1.10777959183673,-1.53479693877551,-0.65449081632653,-0.284394897959184,-0.311622448979592,-0.190809183673469,-1498.0469
3,1,-0.876061224489796,-0.489539795918367,-0.650542857142857,-0.934640816326531,-1.87552959183673,-0.619795918367347,-0.492172448979592,-0.244487755102041,-0.417438775510204,-1497.0703
3,1,-0.713726530612245,-0.341608163265306,-0.528664285714286,-0.727976530612245,-2.01875714285714,-0.414448979591837,-0.349152040816327,-0.0006142857142857,-0.283826530612245,-1496.0938
3,1,-0.806515306122449,-0.469717346938775,-0.610373469387755,-0.612817346938776,-2.46048367346939,-0.422006122448979,-0.571985714285714,-0.146767346938775,-0.458258163265306,-1495.1172
3,1,-1.60355408163265,-1.20942959183673,-1.21406224489796,-1.02276734693878,-3.31326632653061,-0.874232653061224,-1.14639081632653,-0.66349387755102,-0.969232653061225,-1494.1406
3,1,-2.1526,-1.71085,-1.70375408163265,-1.44089591836735,-3.84049183673469,-1.22892857142857,-1.46303469387755,-1.04306326530612,-1.30821632653061,-1493.1641
3,1,-2.09505816326531,-1.66653163265306,-1.67035510204082,-1.68355714285714,-3.51553163265306,-1.29047346938775,-1.32123979591837,-1.1678306122449,-1.46241836734694,-1492.1875
3,1,-1.63991836734694,-1.27670102040816,-1.30242653061225,-1.53994591836735,-2.87587959183673,-1.11522755102041,-0.829886734693878,-0.935561224489796,-1.16713673469388,-1491.2109
3,1,-1.62767857142857,-1.27217142857143,-1.22828673469388,-1.2740306122449,-2.75333673469388,-1.0830112244898,-0.786523469387755,-0.906009183673469,-1.09490408163265,-1490.2344
3,1,-2.28839387755102,-1.88705612244898,-1.78386734693878,-1.78043265306122,-3.67413163265306,-1.60576326530612,-1.60781530612245,-1.37031020408163,-1.70963163265306,-1489.2578
3,1,-2.23702448979592,-1.74308367346939,-1.71005102040816,-1.75351734693878,-3.6890693877551,-1.47147244897959,-1.57458673469388,-1.24603265306122,-1.6507112244898,-1488.2813
3,1,-1.55656224489796,-1.2079806122449,-1.23297959183673,-1.58148571428571,-2.8344193877551,-1.12094795918367,-0.974538775510204,-0.973687755102041,-1.21596326530612,-1487.3047
3,1,-1.10500714285714,-1.06221632653061,-1.18532959183673,-1.50739489795918,-2.4552112244898,-1.15281632653061,-0.9246,-1.16287244897959,-1.40369285714286,-1486.3281
3,1,1.63283673469388,0.721008163265306,0.552512244897959,0.373416326530612,0.863433673469388,0.482367346938776,1.46427346938776,-0.168713265306122,0.338854081632653,-1485.3516
3,1,1.8178112244898,1.07814795918367,1.03575204081633,0.528786734693878,1.2754306122449,0.678520408163265,1.76358367346939,0.0098551020408163,0.700873469387755,-1484.375
3,1,1.96280714285714,1.28368571428571,1.13742346938776,0.796633673469388,1.5871693877551,0.729489795918367,1.97582755102041,-0.0460469387755102,0.847066326530612,-1483.3984
3,1,1.99085816326531,1.32677551020408,1.12167551020408,1.04112142857143,1.36363775510204,0.815963265306123,1.93816326530612,0.0638938775510204,0.850547959183674,-1482.4219
3,1,1.87909489795918,1.23247959183673,1.03725,0.878280612244898,1.12285510204082,0.867834693877551,1.68236836734694,0.204783673469388,0.582226530612245,-1481.4453
3,1,1.68060918367347,1.09431632653061,0.893266326530612,0.761964285714286,0.994152040816326,0.905757142857143,1.47118163265306,0.248178571428571,0.376467346938776,-1480.4688
3,1,1.46845,1.08458265306122,0.970465306122449,0.489357142857143,0.976391836734694,0.905545918367347,1.74101224489796,0.301729591836735,0.705310204081633,-1479.4922
3,1,1.61494795918367,1.28497142857143,1.17319897959184,0.105827551020408,1.52605102040816,1.02437346938776,2.1148306122449,0.533047959183674,1.19701428571429,-1478.5156
3,1,2.04113571428571,1.62620714285714,1.44888367346939,0.452771428571428,1.94541020408163,1.4231387755102,2.46962142857143,0.951766326530612,1.49407244897959,-1477.5391
3,1,2.09065816326531,1.69017857142857,1.57265102040816,0.547247959183674,1.9280387755102,1.47180816326531,2.70847755102041,1.00600102040816,1.55672040816327,-1476.5625
3,1,2.26841020408163,1.77249897959184,1.70431224489796,0.476062244897959,2.23949489795918,1.37325,3.11428367346939,0.886074489795918,1.82220612244898,-1475.5859
3,1,2.42586632653061,1.77987244897959,1.69853571428571,0.322488775510204,1.96677755102041,1.32128673469388,3.07910408163265,0.741681632653061,1.75049285714286,-1474.6094
3,1,2.40646530612245,1.73046632653061,1.63967244897959,0.782297959183674,1.54649795918367,1.49058775510204,2.73422653061224,0.842529591836735,1.46589081632653,-1473.6328
3,1,2.38484387755102,1.77211836734694,1.67311428571429,1.12002040816327,1.58879591836735,1.53855612244898,2.65163367346939,0.959718367346939,1.42006632653061,-1472.6563
3,1,2.86483265306122,2.3842806122449,2.14583979591837,1.81047551020408,2.49460204081633,1.97777959183673,3.29959795918367,1.41772448979592,1.88681734693878,-1471.6797
3,1,3.3307306122449,2.85380204081633,2.47045918367347,2.27277959183673,3.18954489795918,2.31824387755102,3.54255306122449,1.67073673469388,2.10219897959184,-1470.7031
3,1,3.36713163265306,2.8168612244898,2.45172346938776,2.16555102040816,3.38518673469388,2.32254387755102,3.21692244897959,1.7107387755102,1.89763265306122,-1469.7266
3,1,3.07540408163265,2.49461224489796,2.20058571428571,1.67585612244898,2.94418367346939,2.03228367346939,2.86634591836735,1.52960918367347,1.62195510204082,-1468.75
3,1,3.00895408163265,2.37964795918367,2.06243979591837,1.49912653061224,2.55365510204082,1.91357448979592,2.75122857142857,1.44309591836735,1.43706836734694,-1467.7734
3,1,3.03645816326531,2.47620612244898,2.21277857142857,1.86560204081633,2.21782857142857,2.26839591836735,2.67875,1.73547857142857,1.34622040816327,-1466.7969
3,1,3.00212959183673,2.39237346938775,2.09101326530612,2.28689489795918,2.12772040816327,2.41410510204082,2.5767,1.86211326530612,1.26448469387755,-1465.8203
3,1,2.90091326530612,2.29355,2.01693673469388,2.12905204081633,2.11028673469388,2.25414795918367,2.73437755102041,1.77920102040816,1.39735408163265,-1464.8438
3,1,2.65934081632653,2.03953265306122,1.76838775510204,1.71255306122449,1.76586326530612,2.08510510204082,2.42295612244898,1.70862551020408,1.22687653061224,-1463.8672
3,1,2.67276326530612,1.91186326530612,1.62024285714286,1.56602448979592,1.68600306122449,2.0482806122449,2.17767040816327,1.60945918367347,0.982351020408163,-1462.8906
3,1,2.94067142857143,2.21244693877551,1.89839183673469,1.70710714285714,2.1620112244898,2.20572653061225,2.54569795918367,1.78991836734694,1.31220102040816,-1461.9141
3,1,2.89868367346939,2.32334285714286,2.01052653061224,1.78663163265306,2.36186224489796,2.23507040816327,2.71509387755102,1.86915306122449,1.50894795918367,-1460.9375
3,1,2.92033775510204,2.33733979591837,1.93072448979592,1.76686020408163,2.50563163265306,2.31908979591837,2.84791428571429,1.80360306122449,1.54203367346939,-1459.9609
3,1,2.63953979591837,1.97827857142857,1.55367755102041,1.70485306122449,2.21138163265306,2.17831224489796,2.50460408163265,1.49242448979592,1.08956530612245,-1458.9844
3,1,2.7349,2.05226632653061,1.50661836734694,1.90621020408163,2.17858673469388,2.14011632653061,2.4858806122449,1.38693775510204,0.953267346938776,-1458.0078
3,1,3.03145306122449,2.31098979591837,1.7151387755102,1.84066428571429,2.56540306122449,2.12108979591837,2.82825102040816,1.42690408163265,1.13635306122449,-1457.0313
3,1,3.05052448979592,2.34151734693878,1.77457959183673,1.59766530612245,2.56065612244898,2.02337959183673,2.97135612244898,1.37340714285714,1.26134591836735,-1456.0547
3,1,3.05641020408163,2.31419693877551,1.66335612244898,1.54249897959184,2.60212959183673,1.8687806122449,2.92120102040816,1.28100408163265,1.15413673469388,-1455.0781
3,1,3.01607653061225,2.35842857142857,1.69798673469388,1.74480510204082,2.91289897959184,1.94025510204082,3.04621734693878,1.36866836734694,1.30392959183673,-1454.1016
3,1,2.82518163265306,2.26497551020408,1.56975918367347,1.95224387755102,2.75639387755102,2.01288673469388,2.71600918367347,1.3148693877551,0.979742857142857,-1453.125
3,1,2.64878775510204,2.04191020408163,1.42634591836735,2.1154806122449,2.31683673469388,2.05361224489796,2.39094591836735,1.24145306122449,0.701979591836735,-1452.1484
3,1,2.40337040816327,1.87997346938776,1.34655612244898,2.03555816326531,1.65558979591837,2.0548306122449,2.17805102040816,1.17426326530612,0.608362244897959,-1451.1719
3,1,2.55125306122449,1.88532857142857,1.30613775510204,1.68325306122449,1.47275408163265,1.83699591836735,2.26606836734694,0.932405102040816,0.642674489795918,-1450.1953
3,1,2.05712040816327,1.35277755102041,0.839067346938776,1.00723163265306,1.03124693877551,1.22866734693878,1.88315408163265,0.467521428571429,0.414616326530612,-1449.2188
3,1,2.07362551020408,1.37777448979592,0.820945918367347,1.15729693877551,0.97245306122449,1.27444591836735,1.98690612244898,0.513101020408163,0.494495918367347,-1448.2422
3,1,2.23647448979592,1.61862551020408,0.977216326530612,1.37137040816327,1.08435408163265,1.39263163265306,2.2750693877551,0.663889795918367,0.635339795918367,-1447.2656
3,1,2.06778367346939,1.44104693877551,0.75554387755102,1.0378806122449,1.12053163265306,1.1902806122449,2.03917653061225,0.502197959183673,0.427148979591837,-1446.2891
3,1,1.97724795918367,1.30402959183673,0.789965306122449,0.703066326530612,0.895239795918367,1.08664795918367,1.82929795918367,0.418322448979592,0.273671428571428,-1445.3125
3,1,1.99014489795918,1.44650918367347,0.984272448979592,0.611908163265306,0.901075510204082,0.972041836734694,2.04996020408163,0.404798979591837,0.477707142857143,-1444.3359
3,1,1.98567448979592,1.54102244897959,1.14546734693878,0.515683673469388,0.97545306122449,0.994595918367347,2.18223265306122,0.520373469387755,0.739622448979592,-1443.3594
3,1,2.03319387755102,1.50463469387755,1.10593979591837,0.538263265306123,0.858231632653061,1.17217959183673,2.03522959183673,0.647778571428571,0.725472448979592,-1442.3828
3,1,2.11116326530612,1.54514387755102,1.18464285714286,0.842715306122449,0.461634693877551,1.29932448979592,1.72119285714286,0.713524489795918,0.589157142857143,-1441.4063
3,1,2.55829081632653,1.92516530612245,1.52936734693878,1.16217959183673,0.778833673469388,1.43286224489796,1.93550612244898,0.697126530612245,0.640894897959184,-1440.4297
3,1,3.01848367346939,2.34716224489796,1.89413367346939,1.77370918367347,1.11102448979592,1.79497244897959,2.2224806122449,0.83285,0.981819387755102,-1439.4531
3,1,2.99998469387755,2.50564795918367,2.09936224489796,2.02230408163265,0.809963265306122,2.02390204081633,2.19824795918367,0.888137755102041,1.15282857142857,-1438.4766
3,1,3.00963979591837,2.59962857142857,2.28595408163265,1.83264693877551,0.770448979591837,2.07463673469388,2.25994591836735,0.989914285714286,1.30280816326531,-1437.5
3,1,3.00349795918367,2.42842959183673,2.13648775510204,1.55130306122449,0.919361224489796,1.93573673469388,2.38305918367347,0.99149693877551,1.28676836734694,-1436.5234
3,1,3.02864285714286,2.43353571428571,2.24728979591837,1.27216836734694,1.05397448979592,1.92005102040816,2.80733775510204,1.19968979591837,1.5461887755102,-1435.5469
3,1,3.13681326530612,2.63764795918367,2.49516224489796,0.981224489795918,1.43611530612245,1.80201530612245,3.20237244897959,1.15612244897959,1.79806020408163,-1434.5703
3,1,3.49954489795918,2.95477551020408,2.71536326530612,1.26341428571429,2.15337959183673,1.92491632653061,3.4886887755102,1.25000408163265,2.08446530612245,-1433.5938
3,1,3.62436020408163,3.01376020408163,2.56589387755102,1.46172346938776,2.53033571428571,1.89890102040816,3.35338571428571,1.25409591836735,2.01024897959184,-1432.6172
3,1,3.75035,3.09618775510204,2.54662551020408,1.96388673469388,2.40254183673469,2.11629387755102,3.27879081632653,1.3937612244898,1.97415918367347,-1431.6406
3,1,4.0317387755102,3.41069795918367,2.86176428571429,2.59603673469388,2.10144795918367,2.56180204081633,3.33809693877551,1.76173673469388,2.15303673469388,-1430.6641
3,1,4.43252346938776,3.80932857142857,3.28583265306122,3.02443469387755,2.2599693877551,2.8132,3.61996836734694,1.85861836734694,2.24775816326531,-1429.6875
3,1,4.3935612244898,3.87891428571429,3.45981530612245,2.93507755102041,2.69348571428571,2.75729693877551,3.82486224489796,1.86051224489796,2.37327040816327,-1428.7109
3,1,4.17900510204082,3.73762142857143,3.44575612244898,2.53431632653061,2.70045612244898,2.54977551020408,3.74608979591837,1.82443469387755,2.31612959183673,-1427.7344
3,1,4.04395,3.52079591836735,3.31024693877551,2.26236428571429,2.65090510204082,2.43266428571429,3.64956224489796,1.65045714285714,2.23869183673469,-1426.7578
3,1,4.14583775510204,3.58829285714286,3.39716020408163,2.21846224489796,2.90278367346939,2.56894693877551,3.83730408163265,1.64978163265306,2.47964489795918,-1425.7813
3,1,4.23785306122449,3.69613265306122,3.55648673469388,2.05920816326531,3.07025,2.56804081632653,3.98910102040816,1.62873673469388,2.64113775510204,-1424.8047
3,1,4.35490510204082,3.95337244897959,3.77251428571429,1.97647448979592,3.08650816326531,2.68064285714286,4.31137040816327,1.93396836734694,3.13415918367347,-1423.8281
3,1,4.49797551020408,4.18740306122449,4.0436306122449,2.05038469387755,3.42999489795918,2.83871020408163,4.58793979591837,2.1945693877551,3.61411734693878,-1422.8516
3,1,4.63266836734694,4.28312346938776,4.12111836734694,2.32446020408163,3.82596632653061,2.85417653061225,4.78702244897959,2.11004387755102,3.60131632653061,-1421.875
3,1,4.67467857142857,4.27118469387755,3.99403979591837,2.30126224489796,3.7725,2.7077806122449,4.79742448979592,1.88651326530612,3.42032755102041,-1420.8984
3,1,4.41900714285714,4.09953163265306,3.74148673469388,2.02506836734694,3.39866632653061,2.53479693877551,4.46193571428571,1.79667653061224,3.08018265306122,-1419.9219
3,1,4.23711530612245,3.88735306122449,3.59746224489796,2.37254489795918,3.19985102040816,2.74187959183673,4.03339591836735,2.02387142857143,2.76732959183673,-1418.9453
3,1,4.11652244897959,3.69154795918367,3.45575,2.66791020408163,3.14492551020408,2.84039897959184,3.84057551020408,2.12003265306122,2.62775,-1417.9688
3,1,3.91480714285714,3.66268163265306,3.39264693877551,2.6520693877551,3.42778469387755,2.75642755102041,3.84444081632653,2.05657653061224,2.6765887755102,-1416.9922
3,1,3.91177959183673,3.66610918367347,3.39597551020408,2.53966530612245,3.49696224489796,2.59746326530612,3.84285408163265,2.03347755102041,2.78021224489796,-1416.0156
3,1,3.92927959183673,3.64703469387755,3.43054795918367,2.42315306122449,3.70258979591837,2.56598469387755,3.76586734693878,2.09788265306122,2.86691632653061,-1415.0391
3,1,3.68775,3.43551530612245,3.28689387755102,2.34665612244898,3.40431428571429,2.58204387755102,3.59945306122449,2.16705204081633,2.81732244897959,-1414.0625
3,1,3.2794387755102,3.12507142857143,3.04943571428571,1.98814795918367,2.96329795918367,2.53214285714286,3.55342959183673,2.34561224489796,2.86573673469388,-1413.0859
3,1,3.04565510204082,2.8683693877551,2.98220306122449,1.63680510204082,2.56922755102041,2.30828571428571,3.41207244897959,2.28164387755102,2.82418979591837,-1412.1094
3,1,3.29751020408163,3.00662244897959,3.06317551020408,1.82324897959184,2.68125816326531,2.43820816326531,3.59148367346939,2.3411693877551,2.97440714285714,-1411.1328
3,1,3.41361224489796,3.12104897959184,3.05379285714286,1.81493163265306,2.89618775510204,2.45576530612245,3.79367653061224,2.2957693877551,3.08175510204082,-1410.1563
3,1,3.10135918367347,2.77591428571429,2.77747448979592,1.64232448979592,2.53287346938776,2.25151428571429,3.71144285714286,2.13127244897959,2.97156428571429,-1409.1797
3,1,3.16087959183673,2.79180612244898,2.76966632653061,1.83810612244898,2.27533979591837,2.34946632653061,3.8586693877551,2.17912857142857,3.20617959183673,-1408.2031
3,1,3.25253979591837,2.83393571428571,2.6942612244898,1.61225816326531,2.22080816326531,2.08931836734694,3.8457387755102,1.87441836734694,3.10201632653061,-1407.2266
3,1,3.04347142857143,2.68693979591837,2.55015714285714,1.65172448979592,2.11672244897959,1.98600306122449,3.78405102040816,1.74313265306122,2.90763673469388,-1406.25
3,1,2.5006612244898,2.27942346938776,2.25467346938775,1.43509795918367,1.59932755102041,1.91530816326531,3.4073887755102,1.75139489795918,2.69225714285714,-1405.2734
3,1,2.62647142857143,2.40473163265306,2.34106428571429,1.7053,1.90767244897959,2.18420306122449,3.39982755102041,2.16113979591837,2.76219693877551,-1404.2969
3,1,2.94720102040816,2.61664897959184,2.50392857142857,1.8029806122449,2.14884693877551,2.31370102040816,3.54380306122449,2.34995306122449,2.92662857142857,-1403.3203
3,1,3.09113163265306,2.69687857142857,2.52868469387755,1.68478571428571,2.4655387755102,2.3017612244898,3.59102040816327,2.26635612244898,2.91136734693878,-1402.3438
3,1,2.76463571428571,2.34219387755102,2.14997346938776,1.04170408163265,2.55349081632653,1.97129591836735,3.32564285714286,1.85190408163265,2.50592244897959,-1401.3672
3,1,2.38408265306122,1.91564183673469,1.81838469387755,0.568980612244898,2.28172040816327,1.66674489795918,3.10920510204082,1.52294387755102,2.18505102040816,-1400.3906
3,1,2.27176632653061,1.73645408163265,1.73183469387755,0.417882653061225,1.97095612244898,1.66367755102041,3.00662244897959,1.51951326530612,2.18077040816327,-1399.4141
3,1,2.20307448979592,1.71277551020408,1.80194081632653,0.445665306122449,2.04589897959184,1.76267040816327,3.09349795918367,1.70907244897959,2.31525,-1398.4375
3,1,2.01136224489796,1.56937959183673,1.83614489795918,0.396547959183673,1.74101224489796,1.76904285714286,2.98607551020408,1.80008979591837,2.41490612244898,-1397.4609
3,1,2.04457040816327,1.45682959183673,1.66175918367347,0.480563265306122,1.47379387755102,1.80885204081633,2.88548775510204,1.87530204081633,2.32299693877551,-1396.4844
3,1,2.41223673469388,1.76020612244898,1.80111734693878,1.03722653061225,1.70727244897959,2.11109285714286,3.07990816326531,2.25637653061224,2.55629591836735,-1395.5078
3,1,3.05026632653061,2.30518163265306,2.31222857142857,1.79785,2.46234285714286,2.57429795918367,3.56536632653061,2.5885112244898,3.05557244897959,-1394.5313
3,1,3.49692653061225,2.62941428571429,2.49401632653061,2.4423,2.98759795918367,2.79532040816327,3.69195612244898,2.49873265306122,3.03909387755102,-1393.5547
3,1,3.63441428571429,2.78798673469388,2.52010714285714,2.91022448979592,3.03699285714286,2.84906530612245,3.6459387755102,2.41243673469388,2.93818265306122,-1392.5781
3,1,3.6861,2.88257653061224,2.64554795918367,3.08330306122449,2.94415510204082,2.79373979591837,3.79582551020408,2.36167142857143,3.06252040816327,-1391.6016
3,1,3.65449693877551,2.69042346938776,2.54117346938776,2.66658163265306,2.48975612244898,2.58035306122449,3.64220204081633,2.12573673469388,2.95549489795918,-1390.625
3,1,3.65695918367347,2.57989591836735,2.40705714285714,2.25467244897959,2.15645714285714,2.49855612244898,3.39115306122449,2.07340612244898,2.60539285714286,-1389.6484
3,1,3.58313265306122,2.35882040816327,2.30362040816327,1.99435816326531,1.99229693877551,2.47803673469388,3.31593367346939,2.06664897959184,2.38192755102041,-1388.6719
3,1,3.22266224489796,2.08230408163265,2.16478775510204,1.88422857142857,1.63481632653061,2.39621530612245,3.27115918367347,2.04182551020408,2.13431326530612,-1387.6953
3,1,3.19590714285714,2.08957755102041,1.9950112244898,2.0424112244898,1.51588775510204,2.31662551020408,3.29661224489796,1.91215306122449,1.97570102040816,-1386.7188
3,1,3.35505306122449,2.27839693877551,2.05824795918367,2.27081530612245,1.72292040816327,2.50955714285714,3.47296020408163,2.1253112244898,2.0546112244898,-1385.7422
3,1,3.37571530612245,2.37987346938776,2.15589285714286,2.24243673469388,2.25122755102041,2.5734612244898,3.69365204081633,2.09164387755102,2.21546224489796,-1384.7656
3,1,3.12535204081633,2.28107040816327,2.08804489795918,1.87450306122449,2.29275408163265,2.38093775510204,3.5025806122449,1.98590306122449,2.16409489795918,-1383.7891
3,1,2.90249591836735,2.06694489795918,1.85504387755102,1.53812448979592,2.0688112244898,2.04218775510204,2.8315193877551,1.70677448979592,1.81403265306122,-1382.8125
3,1,2.55223469387755,1.74110714285714,1.60058469387755,1.59212755102041,1.86639897959184,1.94567142857143,2.30423571428571,1.52507346938776,1.29434387755102,-1381.8359
3,1,2.51110102040816,1.64165102040816,1.43169489795918,1.65189489795918,2.00976530612245,2.02365918367347,2.1492,1.5329193877551,1.19510408163265,-1380.8594
3,1,2.65480816326531,1.89143469387755,1.64357040816327,1.79700918367347,2.18200306122449,2.1446887755102,2.31909285714286,1.62941530612245,1.46987448979592,-1379.8828
3,1,2.83830510204082,2.22258163265306,1.91335714285714,2.07024285714286,2.4295,2.35951530612245,2.55298367346939,1.81856734693878,1.65118163265306,-1378.9063
3,1,2.9243806122449,2.20805306122449,1.8408693877551,2.01090102040816,2.47276530612245,2.34425306122449,2.54678571428571,1.86797857142857,1.55885612244898,-1377.9297
3,1,3.02846020408163,2.18790918367347,1.82677346938776,2.03146428571429,2.67686224489796,2.26238673469388,2.55561326530612,1.7605693877551,1.54916530612245,-1376.9531
3,1,3.33463775510204,2.38971530612245,1.9254,2.47848163265306,2.98454693877551,2.36499183673469,2.67745612244898,1.7678887755102,1.62631224489796,-1375.9766
3,1,3.2749112244898,2.28952346938775,1.91548265306122,2.51088673469388,2.61587244897959,2.27633265306122,2.62503979591837,1.69671428571429,1.62355510204082,-1375.0
3,1,2.98202755102041,2.05007653061225,1.76119183673469,2.46067244897959,2.12869285714286,2.12192346938776,2.24977551020408,1.58218775510204,1.20338163265306,-1374.0234
3,1,2.5170387755102,1.71491326530612,1.39079489795918,2.01251836734694,1.77567040816327,1.8661,1.8309193877551,1.47332653061224,0.897492857142857,-1373.0469
3,1,2.21754387755102,1.47575306122449,1.17987857142857,1.34041734693878,1.45724795918367,1.61617857142857,1.57588163265306,1.41876224489796,0.77955612244898,-1372.0703
3,1,2.29516632653061,1.51342857142857,1.25186734693878,1.19112959183673,1.58544489795918,1.66481020408163,1.6576612244898,1.46753469387755,0.864674489795918,-1371.0938
3,1,2.3934693877551,1.66278979591837,1.28533673469388,1.50348163265306,1.9934612244898,1.77927346938776,2.01795102040816,1.43340918367347,0.942398979591837,-1370.1172
3,1,2.57908571428571,1.77988265306122,1.30939387755102,1.77284897959184,2.33987346938775,2.01173775510204,2.3217887755102,1.52026734693878,1.18933469387755,-1369.1406
3,1,2.5379612244898,1.66599285714286,1.20517857142857,2.06584183673469,2.22596020408163,2.10301224489796,2.23633367346939,1.64654081632653,1.22261530612245,-1368.1641
3,1,2.44296326530612,1.62188469387755,1.28301836734694,2.18880204081633,1.89852755102041,2.09276836734694,2.10388163265306,1.59855408163265,1.13659591836735,-1367.1875
3,1,2.49945612244898,1.76098265306122,1.36647448979592,2.41976530612245,1.46022959183673,2.16064285714286,2.12144591836735,1.63516632653061,1.15893571428571,-1366.2109
3,1,2.14882857142857,1.39410816326531,1.00266632653061,2.18254285714286,0.921410204081633,1.76164285714286,1.75703469387755,1.39939693877551,0.928607142857143,-1365.2344
3,1,1.91305306122449,1.05600510204082,0.629995918367347,2.0102693877551,0.525139795918367,1.4459,1.41409285714286,1.05527142857143,0.621102040816327,-1364.2578
3,1,1.92989285714286,0.97879693877551,0.527592857142857,1.8383306122449,0.393421428571428,1.37375102040816,1.21024489795918,0.949831632653061,0.470047959183673,-1363.2813
3,1,1.90595612244898,0.948318367346939,0.502187755102041,1.66389693877551,0.292985714285714,1.48147755102041,1.22683571428571,1.11061428571429,0.480395918367347,-1362.3047
3,1,1.90347755102041,0.983408163265306,0.61695612244898,1.39140612244898,0.323312244897959,1.60093265306122,1.2638887755102,1.2204387755102,0.585890816326531,-1361.3281
3,1,2.38669081632653,1.30940306122449,0.91105,1.76971326530612,0.849373469387755,2.02184693877551,1.72029693877551,1.57221632653061,0.927731632653061,-1360.3516
3,1,2.35766836734694,1.24938367346939,0.77670306122449,1.83123775510204,0.677938775510204,2.02231020408163,1.72674081632653,1.48953265306122,0.827201020408163,-1359.375
3,1,2.38136530612245,1.24158673469388,0.773048979591837,1.56007857142857,0.812031632653061,1.88327142857143,1.83555714285714,1.41175,0.727140816326531,-1358.3984
3,1,2.16483775510204,1.01130510204082,0.539974489795918,1.29190918367347,0.892314285714286,1.65674897959184,1.58947755102041,1.14078673469388,0.333769387755102,-1357.4219
3,1,1.7789306122449,0.735752040816327,0.248151020408163,1.12612959183673,0.432981632653061,1.40727346938776,1.24775102040816,1.00060102040816,0.0982724489795917,-1356.4453
3,1,1.49026632653061,0.514257142857143,0.061715306122449,0.875070408163265,-0.0674867346938777,1.29715612244898,0.923760204081633,0.998324489795918,-0.0084142857142857,-1355.4688
3,1,1.51979591836735,0.601718367346939,0.222387755102041,0.461952040816327,-0.143322448979592,1.23008673469388,0.907514285714286,0.92515612244898,-0.0514591836734693,-1354.4922
3,1,1.87328571428571,0.920827551020408,0.46705306122449,0.385057142857143,0.420669387755102,1.36069387755102,1.30705408163265,1.07832142857143,0.359058163265306,-1353.5156
3,1,2.09044795918367,1.10294489795918,0.524691836734694,0.691688775510204,0.818571428571429,1.40729285714286,1.4296306122449,1.03877551020408,0.494381632653061,-1352.5391
3,1,2.15152959183673,1.14662857142857,0.505975510204082,0.840811224489796,0.768182653061224,1.35521632653061,1.32744285714286,0.927280612244898,0.382589795918367,-1351.5625
3,1,2.43277551020408,1.40072857142857,0.757373469387755,1.52971224489796,1.09681020408163,1.71716020408163,1.6010306122449,1.08461836734694,0.490223469387755,-1350.5859
3,1,2.57232244897959,1.5400693877551,0.833225510204082,1.80557653061224,1.22228673469388,1.86248469387755,1.64289183673469,1.20453979591837,0.434892857142857,-1349.6094
3,1,2.76768775510204,1.92285,1.18720204081633,1.82239489795918,1.3415112244898,1.95285,1.64555,1.32950204081633,0.361374489795919,-1348.6328
3,1,2.60381326530612,1.91325714285714,1.20261734693878,1.78048775510204,1.03829183673469,1.92705306122449,1.53842959183673,1.30704489795918,0.404426530612245,-1347.6563
3,1,2.43665102040816,1.81569591836735,1.18279897959184,1.99526326530612,0.739816326530612,2.04879897959184,1.50687755102041,1.38630612244898,0.392559183673469,-1346.6797
3,1,2.39189081632653,1.7309306122449,1.1843693877551,2.17896224489796,0.806251020408163,2.18774081632653,1.61299285714286,1.52105306122449,0.33920306122449,-1345.7031
3,1,2.35782551020408,1.61203367346939,1.10410408163265,2.34417959183673,0.844574489795918,2.28296530612245,1.6905612244898,1.68700510204082,0.368101020408163,-1344.7266
3,1,2.54592857142857,1.66800204081633,1.19057857142857,2.34436020408163,1.10043775510204,2.34481020408163,1.97109897959184,1.78458571428571,0.761837755102041,-1343.75
3,1,2.85635612244898,2.03832448979592,1.60922653061224,2.24318469387755,1.58705204081633,2.41261020408163,2.41614897959184,1.84682857142857,1.2335193877551,-1342.7734
3,1,3.25684387755102,2.4107387755102,1.90768571428571,2.04518163265306,2.1096,2.41341224489796,2.74625510204082,1.86029591836735,1.35978775510204,-1341.7969
3,1,3.40147857142857,2.56728163265306,2.00811020408163,1.9452806122449,2.26172857142857,2.45777653061225,2.77849285714286,1.96486836734694,1.30287551020408,-1340.8203
3,1,3.34815714285714,2.45120408163265,2.05006020408163,1.96637551020408,1.99152857142857,2.46366734693878,2.59358265306122,1.95619285714286,1.20413265306122,-1339.8438
3,1,3.05744285714286,2.24436836734694,1.95890612244898,1.66631530612245,1.61195,2.36553673469388,2.33267448979592,1.94787142857143,1.19456224489796,-1338.8672
3,1,2.58647040816327,1.81452448979592,1.62548469387755,1.04779897959184,0.926255102040816,2.11087857142857,1.91294081632653,1.80079795918367,1.0232,-1337.8906
3,1,2.47448367346939,1.67684897959184,1.43802857142857,0.971807142857143,0.473113265306123,2.00794081632653,1.64614693877551,1.64363673469388,0.57929693877551,-1336.9141
3,1,2.64314591836735,1.83523367346939,1.46742551020408,1.65020204081633,0.529829591836735,2.17991326530612,1.74225102040816,1.69490408163265,0.570954081632653,-1335.9375
3,1,2.32182448979592,1.6535693877551,1.25814591836735,1.52264387755102,0.405137755102041,1.93984387755102,1.51047040816327,1.49774489795918,0.437726530612245,-1334.9609
3,1,2.26615204081633,1.63796836734694,1.28179897959184,1.51532448979592,0.428217346938775,1.92075510204082,1.46799897959184,1.49437857142857,0.575144897959184,-1333.9844
3,1,2.37005714285714,1.65979183673469,1.37154285714286,1.70085408163265,0.926781632653061,1.95570612244898,1.87225306122449,1.44868469387755,0.892266326530612,-1333.0078
3,1,2.34880102040816,1.48479897959184,1.25645102040816,1.70473367346939,1.32849693877551,1.8071612244898,1.98354387755102,1.14074081632653,0.714767346938775,-1332.0313
3,1,2.26214285714286,1.27122959183673,0.823669387755102,1.31091632653061,1.41868571428571,1.41098571428571,1.85871020408163,0.614927551020408,0.315574489795918,-1331.0547
3,1,2.18734285714286,1.14740306122449,0.653981632653061,1.14489795918367,1.45240918367347,1.34468367346939,1.83615102040816,0.553986734693878,0.262325510204082,-1330.0781
3,1,2.08911326530612,1.0948887755102,0.632341836734694,1.21585306122449,1.3799112244898,1.51229183673469,1.9082,0.824468367346939,0.414290816326531,-1329.1016
3,1,2.07550612244898,1.05041326530612,0.56824693877551,1.24950306122449,1.17499387755102,1.41191020408163,1.6861887755102,0.695319387755102,0.346451020408163,-1328.125
3,1,2.32783469387755,1.30998469387755,0.751971428571429,1.45641632653061,1.20103979591837,1.5268806122449,1.79793979591837,0.725918367346939,0.380452040816327,-1327.1484
3,1,2.31683367346939,1.30450816326531,0.833824489795918,1.48622040816327,1.01791224489796,1.59884489795918,1.8002,0.84149387755102,0.367089795918367,-1326.1719
3,1,2.54996530612245,1.42823163265306,1.08561836734694,2.00009693877551,0.982313265306122,1.89254081632653,2.00682346938776,1.0393306122449,0.554769387755102,-1325.1953
3,1,2.93244285714286,1.84324285714286,1.56734081632653,2.70578469387755,1.4765,2.22278673469388,2.52316632653061,1.26485,1.01174693877551,-1324.2188
3,1,3.11781836734694,1.96259081632653,1.6545306122449,3.07052346938776,2.05514081632653,2.27058265306122,2.77724897959184,1.33273469387755,1.19345,-1323.2422
3,1,2.79064591836735,1.64235612244898,1.31168163265306,2.60506734693878,2.12087040816326,1.97959897959184,2.51560204081633,1.1758693877551,1.01246428571429,-1322.2656
3,1,2.66276530612245,1.50453673469388,1.24612448979592,2.27529489795918,2.0453806122449,1.90527959183673,2.56787244897959,1.18686224489796,0.989759183673469,-1321.2891
3,1,2.47144387755102,1.20272244897959,1.05251224489796,1.67359795918367,1.56742857142857,1.64917040816327,2.35630612244898,0.997721428571429,0.692775510204082,-1320.3125
3,1,2.38693673469388,1.05463469387755,0.864923469387755,1.23955918367347,1.21774591836735,1.39025204081633,2.0988193877551,0.705763265306122,0.431328571428571,-1319.3359
3,1,2.53231428571429,1.24300408163265,0.99924387755102,1.80295816326531,1.22711326530612,1.66704693877551,1.93028469387755,0.806713265306122,0.328635714285714,-1318.3594
3,1,2.47336428571429,1.23037959183673,1.01036836734694,1.99079387755102,1.19985714285714,1.66087857142857,1.92875102040816,0.72380306122449,0.32884693877551,-1317.3828
3,1,2.52669387755102,1.36629489795918,1.09129387755102,2.20632244897959,1.40598367346939,1.71282959183673,2.15960306122449,0.667359183673469,0.501323469387755,-1316.4063
3,1,2.69192551020408,1.65566224489796,1.34090408163265,2.41248979591837,1.53367959183673,2.0650806122449,2.27628571428571,0.959875510204082,0.775262244897959,-1315.4297
3,1,2.72124387755102,1.78393469387755,1.53785102040816,2.53109183673469,1.68153163265306,2.27812551020408,2.41750510204082,1.24621632653061,1.11822755102041,-1314.4531
3,1,2.45515714285714,1.49826836734694,1.24394591836735,2.27191530612245,1.35527448979592,2.06043979591837,2.1073693877551,1.03172857142857,0.892064285714286,-1313.4766
3,1,2.60775204081633,1.62150102040816,1.38778571428571,2.06387653061224,1.46524591836735,2.0782387755102,2.16739795918367,0.981429591836735,0.949808163265306,-1312.5
3,1,2.44783979591837,1.61767448979592,1.50291632653061,1.81405306122449,1.58764897959184,2.09734489795918,2.19532040816327,1.13076224489796,1.03693367346939,-1311.5234
3,1,1.85420306122449,1.0356193877551,0.975714285714286,1.25664387755102,1.15433469387755,1.63541632653061,1.74122244897959,0.825538775510204,0.691435714285714,-1310.5469
3,1,1.4989193877551,0.60819387755102,0.52030612244898,0.758811224489796,0.594423469387755,1.2584193877551,1.43671530612245,0.409036734693878,0.374721428571429,-1309.5703
3,1,1.64376428571429,0.71235306122449,0.448362244897959,0.694845918367347,0.568940816326531,1.14802142857143,1.49679591836735,0.311276530612245,0.378610204081633,-1308.5938
3,1,1.75059693877551,0.674544897959184,0.47135306122449,0.429511224489796,0.806810204081633,0.877325510204082,1.65480714285714,0.116402040816327,0.547729591836735,-1307.6172
3,1,1.92700612244898,0.901815306122449,0.786794897959184,0.676159183673469,1.31654081632653,1.00131530612245,1.96454081632653,0.308734693877551,0.811909183673469,-1306.6406
3,1,2.42667551020408,1.45726224489796,1.2757,1.30882142857143,1.86362857142857,1.43804387755102,2.46320306122449,0.626159183673469,1.39326224489796,-1305.6641
3,1,2.71424183673469,1.72291428571429,1.43359591836735,1.5035387755102,2.28767040816327,1.57618571428571,2.75683775510204,0.585,1.51730204081633,-1304.6875
3,1,3.17739387755102,2.06691326530612,1.64403367346939,1.8615,2.74195816326531,1.79613469387755,3.19481530612245,0.753359183673469,1.72369489795918,-1303.7109
3,1,3.19506836734694,2.08847551020408,1.62544795918367,2.16356224489796,2.45171020408163,1.79073775510204,3.11321326530612,0.791761224489796,1.71127142857143,-1302.7344
3,1,2.92453469387755,1.83095918367347,1.40845612244898,2.09626020408163,1.90151326530612,1.5873387755102,2.56940816326531,0.574269387755102,1.24263979591837,-1301.7578
3,1,2.99820714285714,1.99317244897959,1.47134387755102,2.31479693877551,1.92119387755102,1.75087346938776,2.36614387755102,0.694108163265306,1.24157959183673,-1300.7813
3,1,3.70334693877551,2.68961530612245,2.00052346938776,2.73641632653061,2.52975306122449,2.1559693877551,2.98820816326531,1.02602959183673,1.8578887755102,-1299.8047
3,1,4.13581530612245,3.01166632653061,2.33540408163265,2.6809112244898,3.25666836734694,2.33465408163265,3.48298775510204,1.20085306122449,2.14142755102041,-1298.8281
3,1,4.19626632653061,3.00479693877551,2.24544183673469,2.20688367346939,3.2376806122449,2.18118367346939,3.48957959183673,1.02593571428571,2.11414591836735,-1297.8516
3,1,4.07638673469388,2.95613571428571,2.28231020408163,1.93275306122449,2.86967448979592,2.19474489795918,3.47308979591837,1.13846734693878,2.34139387755102,-1296.875
3,1,3.66232142857143,2.66383775510204,2.17331632653061,1.83732142857143,2.65964693877551,2.12562244897959,3.33709795918367,1.0170112244898,2.23905510204082,-1295.8984
3,1,3.68827653061224,2.8074806122449,2.34019387755102,2.16364897959184,2.53009489795918,2.22559591836735,3.12150102040816,0.953013265306122,1.96229285714286,-1294.9219
3,1,3.82980306122449,3.03407346938776,2.60238979591837,2.12725510204082,2.48288571428571,2.24693979591837,3.16026224489796,1.03378367346939,2.06674183673469,-1293.9453
3,1,3.83541734693878,3.12608469387755,2.74458571428571,1.88607755102041,2.6026306122449,2.15079183673469,3.5449112244898,1.12483469387755,2.44367040816326,-1292.9688
3,1,3.63249897959184,2.95515102040816,2.57667857142857,1.81824897959184,2.49235714285714,1.9764612244898,3.52735,1.02697857142857,2.32800408163265,-1291.9922
3,1,3.77569081632653,3.1119887755102,2.69697244897959,2.38832448979592,2.46711632653061,2.22814693877551,3.69316224489796,1.30667653061224,2.46029795918367,-1291.0156
3,1,4.50910510204082,3.78455102040816,3.30825714285714,3.39680510204082,3.13138979591837,2.84518367346939,4.42573571428571,1.69620102040816,3.15405102040816,-1290.0391
3,1,4.81226224489796,4.09948673469388,3.54995408163265,4.23011428571429,3.54530612244898,3.1247112244898,4.50162346938775,1.72782040816327,3.22459081632653,-1289.0625
3,1,4.71585816326531,4.1021806122449,3.52075306122449,4.36536020408163,3.51637653061224,3.17635816326531,4.37054387755102,1.71051734693878,3.11461428571429,-1288.0859
3,1,4.51752857142857,3.9095693877551,3.40547755102041,4.05801632653061,3.16957857142857,3.12610306122449,4.29759387755102,1.65613775510204,2.97302857142857,-1287.1094
3,1,4.90771632653061,4.1482887755102,3.61816224489796,4.09880612244898,3.46105714285714,3.31579897959184,4.50280714285714,1.8105306122449,3.00914387755102,-1286.1328
3,1,4.88460510204082,4.21807346938775,3.7220887755102,4.15914081632653,3.19839693877551,3.51207857142857,4.47797857142857,1.97600408163265,2.93327857142857,-1285.1563
3,1,4.23008775510204,3.7375,3.38464183673469,3.38585408163265,2.57018265306122,3.13257755102041,4.17934795918367,1.78705,2.7412193877551,-1284.1797
3,1,4.11377040816327,3.6976112244898,3.40603775510204,3.12920510204082,2.64037346938776,2.98470102040816,4.0930306122449,1.8047112244898,2.90322448979592,-1283.2031
3,1,4.32231836734694,3.84978163265306,3.54969795918367,3.09359081632653,2.97490918367347,2.86350816326531,3.98740816326531,1.68202755102041,2.81544489795918,-1282.2266
3,1,4.4236387755102,3.90708775510204,3.54065714285714,3.1257806122449,3.25943979591837,2.86402959183673,3.98907551020408,1.65510612244898,2.6576806122449,-1281.25
3,1,4.21258979591837,3.64917040816327,3.3338193877551,2.91434489795918,2.79642653061224,2.70373673469388,3.75158571428571,1.48651224489796,2.35603673469388,-1280.2734
3,1,4.40162653061225,3.73924285714286,3.28649081632653,3.0650806122449,2.68727244897959,2.67944795918367,3.6319387755102,1.33616428571429,2.14333673469388,-1279.2969
3,1,4.92660714285714,4.08471326530612,3.40598979591837,3.50509081632653,3.08117857142857,2.74631326530612,3.74240204081633,1.22442346938776,2.11217959183673,-1278.3203
3,1,4.95648469387755,4.06790612244898,3.28876428571429,3.40142142857143,3.1438887755102,2.61366020408163,3.66171020408163,1.07661020408163,2.09596020408163,-1277.3438
3,1,4.70124795918367,3.89437448979592,3.18245612244898,3.22592142857143,2.61465204081633,2.57020612244898,3.38349591836735,1.10686836734694,2.01834387755102,-1276.3672
3,1,4.46012040816327,3.77570306122449,3.07421326530612,3.20050408163265,2.30149591836735,2.58210918367347,3.17711734693878,1.10648571428571,1.73320408163265,-1275.3906
3,1,4.32472040816327,3.62241530612245,2.99245510204082,2.85680714285714,2.06010612244898,2.54813265306122,2.97410510204082,1.1831193877551,1.60499081632653,-1274.4141
3,1,3.78000714285714,3.14182448979592,2.69443979591837,2.0547193877551,1.53790612244898,2.18110816326531,2.70110918367347,1.09336530612245,1.46598367346939,-1273.4375
3,1,3.50045918367347,2.9797306122449,2.50563673469388,1.71397755102041,1.19529897959184,1.97520204081633,2.43745612244898,1.09433571428571,1.27061734693878,-1272.4609
3,1,3.58054897959184,3.08280612244898,2.54204387755102,2.08142142857143,1.75495714285714,2.08993979591837,2.67715,1.1813193877551,1.50236734693878,-1271.4844
3,1,3.44038367346939,2.84225714285714,2.33524081632653,2.05423979591837,2.27296326530612,2.01133673469388,2.76468367346939,1.03230204081633,1.43841428571429,-1270.5078
3,1,3.71003571428571,2.90433367346939,2.29122040816327,2.35880714285714,2.77853163265306,2.12351530612245,3.08440816326531,0.993227551020408,1.4981193877551,-1269.5313
3,1,4.13114387755102,3.04487551020408,2.25175,2.66796428571429,3.28950612244898,2.12595918367347,3.34140714285714,0.862489795918367,1.62360918367347,-1268.5547
3,1,4.40858163265306,3.17283469387755,2.26070204081633,2.96199897959184,3.91967959183673,2.18118469387755,3.55916530612245,0.808678571428571,1.77437244897959,-1267.5781
3,1,4.22581632653061,2.97253163265306,2.13970102040816,2.83828673469388,3.51535612244898,2.09948775510204,3.27221224489796,0.760658163265306,1.59654591836735,-1266.6016
3,1,4.09847040816327,2.97752040816327,2.24203367346939,2.95180816326531,2.9770887755102,2.2668387755102,3.16172551020408,1.05865102040816,1.70794795918367,-1265.625
3,1,4.11206836734694,3.09552142857143,2.33335612244898,3.26575714285714,2.84457551020408,2.54649285714286,3.15050408163265,1.37996632653061,1.7362306122449,-1264.6484
3,1,4.17878163265306,3.06498673469388,2.13339591836735,3.23814387755102,3.07096224489796,2.39938673469388,3.09869081632653,1.0160387755102,1.58002448979592,-1263.6719
3,1,4.05794795918367,2.75248775510204,1.72225204081633,2.99798571428571,2.9870193877551,2.04516530612245,2.92706224489796,0.518511224489796,1.14993775510204,-1262.6953
3,1,3.8681193877551,2.50632346938775,1.33924081632653,2.7095806122449,2.48915102040816,1.83293571428571,2.47736428571429,0.336478571428571,0.61559387755102,-1261.7188
3,1,4.02354183673469,2.63813163265306,1.29340102040816,3.04046326530612,2.46427551020408,1.96877244897959,2.61654897959184,0.374986734693877,0.622311224489796,-1260.7422
3,1,4.0184612244898,2.52007244897959,1.16064897959184,3.0287693877551,2.31352040816327,1.87026020408163,2.64690816326531,0.402025510204082,0.683608163265306,-1259.7656
3,1,3.78721530612245,2.29389081632653,0.997787755102041,2.63939693877551,1.95791224489796,1.68162040816327,2.51073469387755,0.34635306122449,0.657109183673469,-1258.7891
3,1,3.66363163265306,2.07355408163265,0.6459,2.56647346938776,1.78180204081633,1.46528979591837,2.38691530612245,-0.0307632653061225,0.27970306122449,-1257.8125
3,1,3.53781326530612,2.06319591836735,0.601030612244898,2.56835714285714,2.16441836734694,1.37890510204082,2.52332755102041,-0.255691836734694,0.311445918367347,-1256.8359
3,1,3.51442959183673,2.11308673469388,0.715026530612245,2.59416224489796,2.52765714285714,1.33329489795918,2.70023163265306,-0.339588775510204,0.514948979591837,-1255.8594
3,1,3.15891734693878,1.7977193877551,0.52214693877551,2.40889387755102,1.91767959183673,1.14660306122449,2.22540816326531,-0.51370612244898,0.158067346938775,-1254.8828
3,1,3.14552755102041,1.77460408163265,0.538477551020408,2.61397142857143,1.52926836734694,1.29520510204082,1.8299693877551,-0.440572448979592,0.0506112244897959,-1253.9063
3,1,3.24038571428571,1.76242448979592,0.541173469387755,2.58664591836735,1.60315,1.39904387755102,1.92643775510204,-0.338905102040816,0.131429591836735,-1252.9297
3,1,3.47040306122449,2.04814183673469,0.720969387755102,2.68086224489796,2.37503673469388,1.57904081632653,2.23925306122449,-0.151008163265306,0.264870408163265,-1251.9531
3,1,3.7835112244898,2.22154387755102,0.846325510204082,2.79829387755102,3.00876530612245,1.74259897959184,2.34445204081633,-0.0006785714285713,0.208260204081633,-1250.9766
3,1,4.06886020408163,2.33341020408163,0.831120408163265,3.13364489795918,3.22036632653061,1.75343775510204,2.20048571428571,-0.0438326530612246,0.0072724489795917,-1250.0
3,1,4.04783367346939,2.31652653061224,0.838378571428572,3.26256326530612,3.09505306122449,1.78141632653061,1.92523673469388,-0.0099959183673469,-0.143532653061225,-1249.0234
3,1,4.13522959183673,2.44354285714286,0.94174387755102,3.15571530612245,3.06418571428571,1.79984387755102,2.00662244897959,0.0868714285714285,-0.0472632653061224,-1248.0469
3,1,4.27650816326531,2.6912387755102,1.18323673469388,3.21009591836735,3.34337959183673,1.90291428571429,2.24201020408163,0.281838775510204,0.195520408163265,-1247.0703
3,1,4.54839591836735,3.11094489795918,1.64466326530612,3.60401836734694,3.61917244897959,2.24857244897959,2.74930714285714,0.6319,0.722283673469388,-1246.0938
3,1,4.74052857142857,3.27178469387755,1.90789693877551,3.72146632653061,3.57586428571429,2.4693693877551,3.12133571428571,0.853111224489796,1.14268163265306,-1245.1172
3,1,4.48749285714286,2.97577244897959,1.79288673469388,3.31564693877551,3.26915204081633,2.29079387755102,2.95598163265306,0.76599693877551,1.06062551020408,-1244.1406
3,1,3.82123571428571,2.36962040816327,1.32794693877551,2.95778775510204,2.24576224489796,1.95200204081633,2.31292653061224,0.467195918367347,0.482347959183674,-1243.1641
3,1,3.5941693877551,2.16139591836735,1.06340408163265,2.81691530612245,1.74141224489796,1.77444795918367,1.87110204081633,0.288218367346939,0.187909183673469,-1242.1875
3,1,3.72299387755102,2.27981326530612,1.16427653061224,2.91748163265306,1.8379306122449,1.77168265306122,1.91117653061224,0.328619387755102,0.324884693877551,-1241.2109
3,1,3.76484693877551,2.38153673469388,1.28315816326531,3.13295510204082,1.97824795918367,1.91961530612245,2.00068163265306,0.50749693877551,0.468265306122449,-1240.2344
3,1,3.72026530612245,2.49007040816327,1.53797959183673,3.31084795918367,2.07159183673469,2.19059081632653,2.10727857142857,0.847174489795918,0.769339795918367,-1239.2578
3,1,3.61620306122449,2.4411806122449,1.65360918367347,3.15212755102041,1.76700510204082,2.24075306122449,1.99315918367347,1.0589387755102,0.722169387755102,-1238.2813
3,1,3.67667857142857,2.42672755102041,1.73063673469388,3.20864897959184,1.51748163265306,2.35377653061224,1.86412244897959,1.23924285714286,0.726378571428571,-1237.3047
3,1,4.24925102040816,3.02280306122449,2.22074897959184,4.11925918367347,2.1040193877551,2.86217653061225,2.41722959183673,1.58013979591837,1.19892653061224,-1236.3281
3,1,4.38742959183673,3.24776428571429,2.39704489795918,4.30930816326531,2.48393367346939,2.91567857142857,2.84232551020408,1.59641224489796,1.56534285714286,-1235.3516
3,1,4.29344591836735,3.12732346938775,2.24496326530612,4.06902755102041,2.37124489795918,2.89265204081633,2.88438265306122,1.65142346938776,1.64092551020408,-1234.375
3,1,4.45660918367347,3.35059795918367,2.52527551020408,4.37041734693878,2.85998469387755,3.08682551020408,3.17402959183673,1.80539183673469,1.87651020408163,-1233.3984
3,1,4.3190387755102,3.35213571428571,2.68460306122449,4.21341632653061,2.78587755102041,3.0656193877551,3.01758979591837,1.88440204081633,1.85197448979592,-1232.4219
3,1,4.40051836734694,3.46407857142857,2.82315612244898,3.98127653061225,2.72961530612245,3.07604183673469,3.11297653061224,2.02765306122449,1.97457551020408,-1231.4453
3,1,4.56222755102041,3.56576224489796,2.84120714285714,3.95514795918367,2.3930112244898,3.21296530612245,3.1362612244898,2.11131836734694,1.94918979591837,-1230.4688
3,1,4.52668163265306,3.48695510204082,2.81429081632653,3.88947040816327,1.91316020408163,3.24994081632653,3.12030510204082,2.09724081632653,1.92889897959184,-1229.4922
3,1,4.74866224489796,3.6707,3.06678979591837,3.84098571428571,2.20185306122449,3.26870510204082,3.44588163265306,2.23161632653061,2.27409489795918,-1228.5156
3,1,5.13456836734694,4.04126224489796,3.54209387755102,4.27120204081633,3.02943775510204,3.54856428571429,3.9949693877551,2.41037857142857,2.65779081632653,-1227.5391
3,1,5.31172959183673,4.30305102040816,3.7709693877551,4.84379183673469,3.30935714285714,3.91203163265306,4.06885510204082,2.62874285714286,2.71136428571429,-1226.5625
3,1,4.92838163265306,3.97399183673469,3.50106224489796,4.66903469387755,2.93444285714286,3.90020918367347,3.84348571428571,2.66269183673469,2.55117448979592,-1225.5859
3,1,4.95426224489796,3.97616020408163,3.52081836734694,4.85591224489796,3.04265204081633,3.91285102040816,3.80058979591837,2.60796836734694,2.48959693877551,-1224.6094
3,1,5.12424285714286,4.09743775510204,3.71589387755102,5.10364897959184,3.20389897959184,3.92476734693878,3.9250112244898,2.63101836734694,2.57866020408163,-1223.6328
3,1,5.08429183673469,4.10801734693878,3.74276224489796,5.32550408163265,3.34595204081633,3.99409591836735,4.11581734693878,2.84669183673469,2.73587755102041,-1222.6563
3,1,4.86864285714286,3.96246734693878,3.66027959183673,5.02455102040816,3.44863673469388,3.95520918367347,4.40954795918367,3.03941632653061,3.01129183673469,-1221.6797
3,1,4.59867040816327,3.6863387755102,3.43205918367347,4.06175714285714,3.00702755102041,3.5299806122449,4.31322346938776,2.76811734693878,2.87129183673469,-1220.7031
3,1,4.64557959183673,3.74238673469388,3.52509183673469,3.65940612244898,3.11739489795918,3.37868571428571,4.29653775510204,2.71007755102041,2.86164387755102,-1219.7266
3,1,5.16271632653061,4.19573775510204,3.91207142857143,3.74949183673469,3.83435918367347,3.55957448979592,4.7555887755102,2.85300102040816,3.3785806122449,-1218.75
3,1,5.51682040816327,4.39548265306122,4.0297693877551,3.67728673469388,4.26023979591837,3.60418979591837,4.92451020408163,2.76712959183673,3.45205204081633,-1217.7734
3,1,5.17332040816327,4.09677551020408,3.75107653061225,3.40441428571429,4.14039693877551,3.47572653061224,4.80317857142857,2.54390918367347,3.26117857142857,-1216.7969
3,1,4.93601632653061,3.93294897959184,3.53961224489796,3.47935612244898,4.13582959183673,3.43030102040816,4.71583571428571,2.45457142857143,3.24239795918367,-1215.8203
3,1,4.89453163265306,3.94523367346939,3.50119489795918,3.68595306122449,4.17913979591837,3.377,4.54228571428571,2.20007346938776,3.00512346938776,-1214.8438
3,1,4.54604387755102,3.64262040816327,3.22034081632653,3.79444285714286,3.90952448979592,3.19228673469388,4.18514897959184,1.96409795918367,2.57591326530612,-1213.8672
3,1,4.27231224489796,3.52420714285714,3.12856020408163,3.80438469387755,3.41616326530612,3.2047112244898,3.80815102040816,2.13083367346939,2.36695,-1212.8906
3,1,4.43087959183673,3.71101836734694,3.31141734693878,3.76568775510204,3.39966734693878,3.18991530612245,3.81497755102041,2.25348163265306,2.5767693877551,-1211.9141
3,1,4.47602653061224,3.63853979591837,3.26210612244898,3.57432959183673,3.04255306122449,3.13775918367347,3.99456734693878,2.18793571428571,2.74769591836735,-1210.9375
3,1,4.32430816326531,3.49791632653061,3.16632142857143,3.42772448979592,2.3373112244898,3.09150408163265,3.71187244897959,2.08709897959184,2.73936326530612,-1209.9609
3,1,4.67778469387755,3.77604591836735,3.38151326530612,3.89718163265306,2.61617653061225,3.37114183673469,3.90202346938776,2.29579489795918,2.88353367346939,-1208.9844
3,1,5.1489693877551,4.0958887755102,3.54150204081633,4.30889081632653,3.19152346938775,3.66985612244898,4.33400714285714,2.49560204081633,3.10770408163265,-1208.0078
3,1,5.20633673469388,4.03757346938776,3.38903979591837,4.20859387755102,3.32426020408163,3.56582040816327,4.32027857142857,2.19449897959184,2.93572551020408,-1207.0313
3,1,4.65803979591837,3.63618367346939,3.0228887755102,3.56038469387755,3.03669693877551,3.11689285714286,4.02099285714286,1.78332244897959,2.66042040816327,-1206.0547
3,1,4.37416530612245,3.37497346938776,2.86712244897959,3.55036224489796,3.01862346938776,3.04165816326531,3.85979897959184,1.66862040816327,2.49051836734694,-1205.0781
3,1,4.16072346938776,3.07236530612245,2.6808806122449,3.31202653061224,2.75767244897959,2.91946224489796,3.75222346938776,1.63408469387755,2.53170816326531,-1204.1016
3,1,4.22073979591837,3.1670112244898,2.79811428571429,3.2917806122449,2.60626326530612,2.95789183673469,3.83656530612245,1.85107755102041,2.8315887755102,-1203.125
3,1,4.48286734693878,3.54982755102041,3.20799897959184,3.4971306122449,3.02747857142857,3.14093163265306,4.13118979591837,2.03031326530612,3.16647959183673,-1202.1484
3,1,4.55760102040816,3.66150306122449,3.26658673469388,3.78312551020408,3.16390714285714,3.17114693877551,4.1138612244898,1.93865,3.11990306122449,-1201.1719
3,1,5.06247448979592,3.92792448979592,3.37899591836735,4.29589387755102,3.44560102040816,3.43302040816327,4.11109081632653,2.00564897959184,2.96246530612245,-1200.1953
3,1,5.20310408163265,3.8299806122449,3.34546632653061,4.1617806122449,3.51002244897959,3.48459897959184,4.07572448979592,2.07215204081633,2.79342346938776,-1199.2188
3,1,5.53056326530612,4.09812346938776,3.55638673469388,4.44282551020408,3.78514183673469,3.72719285714286,4.51569081632653,2.25389285714286,3.07340408163265,-1198.2422
3,1,5.55642142857143,4.28464285714286,3.84207857142857,4.54939693877551,3.7382112244898,3.87671020408163,4.49501836734694,2.46308367346939,3.16135306122449,-1197.2656
3,1,5.26057959183674,4.10331734693878,3.67901428571429,4.10802346938775,3.3084112244898,3.47932551020408,4.15038979591837,2.19990408163265,2.94460102040816,-1196.2891
3,1,5.02100612244898,3.95104591836735,3.53990714285714,3.64565102040816,3.15244081632653,3.1485112244898,4.2259612244898,1.91456632653061,2.84105714285714,-1195.3125
3,1,4.74804693877551,3.76038469387755,3.36636224489796,3.29062551020408,2.90055816326531,2.96092755102041,4.1564193877551,1.7536693877551,2.77749081632653,-1194.3359
3,1,4.26477040816327,3.37857346938776,3.10954183673469,2.84202142857143,2.66289489795918,2.77346020408163,3.78512959183673,1.62406428571429,2.50196224489796,-1193.3594
3,1,4.07306428571429,3.26772755102041,2.99023775510204,2.86159285714286,2.74701836734694,2.7511387755102,3.64174183673469,1.50778265306122,2.33977142857143,-1192.3828
3,1,4.14664183673469,3.21242959183673,2.9115193877551,3.25029693877551,2.81402244897959,2.95453979591837,3.41327755102041,1.52128571428571,2.14573673469388,-1191.4063
3,1,3.96111734693878,2.93709897959184,2.6582806122449,3.28093163265306,2.51188775510204,2.87219081632653,2.97134285714286,1.36251836734694,1.75770306122449,-1190.4297
3,1,3.89055612244898,2.9267387755102,2.56819897959184,3.30477346938775,2.37224081632653,2.76493979591837,2.84272551020408,1.23978469387755,1.51322448979592,-1189.4531
3,1,4.0822612244898,3.10111836734694,2.64439693877551,3.53447959183673,2.34002244897959,2.82071530612245,2.93845306122449,1.29044693877551,1.56013775510204,-1188.4766
3,1,4.25283775510204,3.06503571428571,2.62067653061224,3.99284591836735,2.57272755102041,2.99496836734694,3.16821734693878,1.41279081632653,1.71162755102041,-1187.5
3,1,4.3791387755102,3.15733673469388,2.70644183673469,4.40397346938776,2.7532193877551,3.13848571428571,3.51954489795918,1.43219693877551,2.12784387755102,-1186.5234
3,1,4.6901887755102,3.24173979591837,2.67805306122449,4.55472040816327,2.81940816326531,3.15581326530612,3.60107755102041,1.38657346938776,2.12368469387755,-1185.5469
3,1,5.06996632653061,3.49149795918367,2.77599795918367,4.74377040816327,3.40776224489796,3.21083163265306,3.79167346938776,1.36338163265306,2.14269285714286,-1184.5703
3,1,5.22870102040816,3.78885510204082,2.95295204081633,4.64539489795918,4.02289489795918,3.1870693877551,4.13708367346939,1.23785408163265,2.35767551020408,-1183.5938
3,1,4.96050204081633,3.68987448979592,2.8268612244898,3.97676734693878,3.88582755102041,3.05931632653061,3.99797857142857,1.23597346938776,2.22880510204082,-1182.6172
3,1,4.31336428571429,3.05958979591837,2.38884795918367,3.05519693877551,2.98033571428571,2.67094387755102,3.27299183673469,1.06055408163265,1.60705,-1181.6406
3,1,4.13352448979592,2.80876530612245,2.17854285714286,2.76482755102041,2.73984183673469,2.52445204081633,3.00282959183673,0.979987755102041,1.29462959183673,-1180.6641
3,1,4.45821428571429,3.07515204081633,2.38548673469388,3.44138979591837,3.10504285714286,2.83538571428571,3.20647142857143,1.20570816326531,1.26638775510204,-1179.6875
3,1,4.63627857142857,3.29544285714286,2.44927448979592,3.96875,3.23030816326531,2.98515306122449,3.22987346938775,1.23437244897959,1.26187448979592,-1178.7109
3,1,4.48781428571429,3.14078367346939,2.19904387755102,3.82125918367347,3.00533367346939,2.64762244897959,3.01305408163265,0.903323469387755,1.20039387755102,-1177.7344
3,1,4.43711326530612,3.11184387755102,2.1999,3.67479795918367,3.15725,2.4851612244898,3.15343469387755,0.786083673469388,1.32085102040816,-1176.7578
3,1,4.76492857142857,3.40016326530612,2.31956836734694,4.00292346938776,3.39743571428571,2.72061020408163,3.25682142857143,0.910618367346939,1.45218367346939,-1175.7813
3,1,4.66865102040816,3.22869183673469,2.06947755102041,3.87064795918367,2.9396612244898,2.52149285714286,3.01830816326531,0.657786734693877,1.20605408163265,-1174.8047
3,1,4.51128367346939,3.10279387755102,1.96855,3.75083979591837,2.80983469387755,2.41566020408163,2.90023469387755,0.553237755102041,1.15918571428571,-1173.8281
3,1,4.59147857142857,3.13796734693878,1.86632551020408,3.51243775510204,2.91768979591837,2.40027244897959,2.82395408163265,0.498967346938775,1.05434285714286,-1172.8516
3,1,4.67402346938776,3.00888571428571,1.68084489795918,3.05162857142857,2.82384897959184,2.34783775510204,3.04434081632653,0.457791836734694,1.1112887755102,-1171.875
3,1,4.91837040816327,3.04326428571429,1.80142551020408,3.03425,2.98575102040816,2.41247755102041,3.46255510204082,0.5436,1.31809387755102,-1170.8984
3,1,4.94857755102041,3.08581224489796,1.89761224489796,2.98720918367347,3.02023163265306,2.33321428571429,3.56346632653061,0.544684693877551,1.34738163265306,-1169.9219
3,1,4.65576836734694,2.90230816326531,1.78035714285714,2.52447448979592,2.4788887755102,1.90665918367347,3.26830918367347,0.182671428571429,1.23128979591837,-1168.9453
3,1,4.31893673469388,2.63686530612245,1.52244387755102,2.18534795918367,2.32888775510204,1.56098571428571,2.9790612244898,-0.141684693877551,0.976020408163265,-1167.9688
3,1,4.4456693877551,2.77113163265306,1.5136693877551,2.4629,2.88705918367347,1.61878775510204,2.96027755102041,-0.125697959183674,0.893857142857143,-1166.9922
3,1,4.77384183673469,3.04015102040816,1.66765918367347,2.92671428571429,3.35850612244898,1.82464387755102,2.86737959183673,0.0245132653061225,0.783933673469388,-1166.0156
3,1,4.76145918367347,3.07369081632653,1.67233979591837,3.13619591836735,3.37699183673469,1.95111020408163,2.79217142857143,0.0845948979591837,0.637051020408163,-1165.0391
3,1,4.78339489795918,3.2238193877551,1.84805102040816,3.26519081632653,3.83176020408163,2.15556632653061,2.95155204081633,0.313334693877551,0.778740816326531,-1164.0625
3,1,4.85687142857143,3.28936428571429,1.94709693877551,3.49480102040816,3.73457142857143,2.31871632653061,2.99276632653061,0.529365306122449,0.856397959183673,-1163.0859
3,1,5.00532040816327,3.42941734693878,1.98130306122449,4.11202040816327,3.36357244897959,2.62785102040816,2.92351020408163,0.760872448979592,0.812964285714286,-1162.1094
3,1,4.79645408163265,3.28691632653061,1.82968163265306,4.43934081632653,2.78582653061224,2.68314795918367,2.65300306122449,0.620929591836735,0.625252040816327,-1161.1328
3,1,4.68624081632653,3.20785306122449,1.68949183673469,4.46109795918367,2.67449387755102,2.67759489795918,2.59911224489796,0.520973469387755,0.670328571428572,-1160.1563
3,1,4.4149693877551,2.97899693877551,1.52209591836735,4.06668571428571,2.41338367346939,2.43954693877551,2.43571020408163,0.321061224489796,0.774431632653061,-1159.1797
3,1,4.39816530612245,2.9914193877551,1.50675714285714,3.95192857142857,2.18651530612245,2.29314591836735,2.34051734693878,0.135273469387755,0.768087755102041,-1158.2031
3,1,4.62566224489796,3.25621632653061,1.7529193877551,4.12220612244898,2.38268673469388,2.45091836734694,2.62295714285714,0.312745918367347,0.827118367346939,-1157.2266
3,1,4.73029285714286,3.3106887755102,1.78684489795918,4.04159489795918,2.71109591836735,2.40622448979592,2.85270612244898,0.247466326530612,0.914718367346939,-1156.25
3,1,4.86942857142857,3.28199183673469,1.8268,3.62070918367347,3.11481326530612,2.30630918367347,2.99812755102041,0.131728571428571,0.958639795918367,-1155.2734
3,1,4.80359795918367,3.16010816326531,1.77717857142857,3.43716326530612,2.95892959183673,2.30252959183673,2.67304387755102,0.123561224489796,0.668869387755102,-1154.2969
3,1,4.81227755102041,3.28352244897959,1.8345193877551,3.68640102040816,2.68595816326531,2.4088887755102,2.39285714285714,0.126116326530612,0.448497959183673,-1153.3203
3,1,4.85962040816327,3.54725306122449,2.13084183673469,3.80052142857143,2.62220408163265,2.43661734693878,2.43068163265306,0.180498979591837,0.63394693877551,-1152.3438
3,1,5.15510816326531,3.97265,2.57219285714286,4.23559693877551,2.93012653061224,2.68788571428571,2.72013469387755,0.494533673469388,0.835316326530612,-1151.3672
3,1,4.97922448979592,3.74158571428571,2.46046020408163,4.24075,2.77670714285714,2.54860816326531,2.5021387755102,0.388713265306122,0.556051020408163,-1150.3906
3,1,5.0742693877551,3.76620408163265,2.60385714285714,4.36167959183673,2.89985102040816,2.60235,2.85234795918367,0.425045918367347,0.800075510204082,-1149.4141
3,1,5.35822448979592,4.00772959183673,2.88477551020408,4.60847959183673,3.48205306122449,2.84829693877551,3.43575714285714,0.611544897959184,1.1004193877551,-1148.4375
3,1,5.62833775510204,4.37985816326531,3.40112551020408,5.13384285714286,3.94918979591837,3.25250918367347,3.88123673469388,1.05317551020408,1.44791428571429,-1147.4609
3,1,6.07043367346939,4.79852244897959,3.80626734693878,5.70490102040816,4.09265714285714,3.60163367346939,4.29461530612245,1.38526836734694,2.00141734693878,-1146.4844
3,1,6.39884183673469,5.17540102040816,4.12451326530612,6.1506387755102,4.36856428571429,3.92711836734694,4.69691326530612,1.55272244897959,2.5024693877551,-1145.5078
3,1,6.75517448979592,5.55910612244898,4.55121020408163,6.21236020408163,4.44378571428571,4.1244112244898,4.90448979591837,1.65836326530612,2.80048163265306,-1144.5313
3,1,6.57656836734694,5.50384387755102,4.57587551020408,6.1185112244898,4.50963469387755,4.11598571428571,4.88078673469388,1.69264489795918,2.82788775510204,-1143.5547
3,1,6.03133265306122,5.12831224489796,4.32123469387755,5.52429183673469,4.25898265306122,3.85837653061225,4.70148775510204,1.61491428571429,2.7004612244898,-1142.5781
3,1,5.7016887755102,4.86081326530612,4.2001693877551,4.97638673469388,4.01557448979592,3.71297755102041,4.49008469387755,1.6252112244898,2.3920193877551,-1141.6016
3,1,5.59368775510204,4.70089489795918,4.13740306122449,4.66784387755102,3.92616734693878,3.68800612244898,4.47511734693878,1.69707551020408,2.45738673469388,-1140.625
3,1,5.5423806122449,4.62067653061225,4.14209897959184,4.50271530612245,3.76643571428571,3.68446530612245,4.51255306122449,1.78357346938776,2.58384285714286,-1139.6484
3,1,5.38892551020408,4.47361428571429,4.04747755102041,4.60614285714286,3.66530918367347,3.65563469387755,4.40701020408163,1.70114591836735,2.61736836734694,-1138.6719
3,1,5.34600816326531,4.2626112244898,3.8534806122449,4.36308367346939,3.40813367346939,3.42676326530612,4.2356387755102,1.54533979591837,2.72965918367347,-1137.6953
3,1,5.80639081632653,4.56801020408163,4.13580408163265,4.66722857142857,3.40601734693878,3.66635204081633,4.47335714285714,1.80508367346939,2.99111326530612,-1136.7188
3,1,5.8216306122449,4.70044183673469,4.35092142857143,4.84323469387755,3.66614081632653,3.88836734693878,4.52245,2.06204489795918,2.94392448979592,-1135.7422
3,1,5.76665,4.72193469387755,4.35190102040816,4.94329591836735,3.97971428571429,3.89257857142857,4.53165408163265,1.98715306122449,2.88041428571429,-1134.7656
3,1,6.18151632653061,5.02321020408163,4.62665816326531,5.37865408163265,4.47961020408163,4.22361428571429,4.95227959183674,2.26387346938776,3.38721428571429,-1133.7891
3,1,6.27283469387755,5.08515204081633,4.69211020408163,5.25484387755102,4.31785612244898,4.28403673469388,4.80909897959184,2.32980408163265,3.38284387755102,-1132.8125
3,1,6.45540204081633,5.25229285714286,4.67096530612245,4.98217857142857,4.36606020408163,4.25428775510204,4.91442244897959,2.33142959183673,3.48006734693878,-1131.8359
3,1,6.61232346938776,5.58201836734694,4.82798163265306,4.94557653061224,4.75136836734694,4.43801326530612,5.22188469387755,2.59585102040816,3.67702959183673,-1130.8594
3,1,6.41416734693878,5.46547959183673,4.8028612244898,4.43090816326531,4.53162755102041,4.29195816326531,4.87236530612245,2.73029795918367,3.45419387755102,-1129.8828
3,1,6.30730714285714,5.42777653061224,4.86595204081633,4.02889795918367,4.32290204081633,4.08543265306122,4.73296734693877,2.74687142857143,3.45621632653061,-1128.9063
3,1,6.17150408163265,5.23527857142857,4.69067448979592,3.83759795918367,4.41805408163265,3.88317142857143,4.85431428571429,2.63860918367347,3.58775714285714,-1127.9297
3,1,6.05826428571429,5.13756530612245,4.62440816326531,4.01175102040816,4.25630612244898,3.95147346938776,4.74880714285714,2.59889489795918,3.69172244897959,-1126.9531
3,1,6.09457653061224,5.30219591836735,4.74083775510204,4.12505408163265,4.22595612244898,4.0009806122449,4.73431428571429,2.54005816326531,3.71336734693878,-1125.9766
3,1,6.29502755102041,5.49769795918367,4.93252653061224,4.35300816326531,4.44770816326531,4.21075816326531,4.78582551020408,2.79032448979592,3.71440408163265,-1125.0
3,1,6.55604285714286,5.68697448979592,5.09963367346939,4.86000612244898,4.75942244897959,4.54242857142857,4.80377448979592,3.15370408163265,3.80586020408163,-1124.0234
3,1,6.63779591836735,5.64875510204082,5.04954285714286,5.06959285714286,4.86571530612245,4.5930693877551,4.66150612244898,3.1103193877551,3.51207959183673,-1123.0469
3,1,6.49527755102041,5.3825693877551,4.84490816326531,4.90120918367347,4.44400816326531,4.39455918367347,4.52852857142857,2.97265918367347,3.44262959183673,-1122.0703
3,1,6.1009612244898,5.09209897959184,4.57495102040816,4.53321428571429,4.08812346938775,4.03531836734694,4.31642040816326,2.78173673469388,3.40267142857143,-1121.0938
3,1,6.18554285714286,5.18276836734694,4.56322551020408,4.59662653061225,4.22122448979592,4.0241112244898,4.52914285714286,2.76225102040816,3.53485,-1120.1172
3,1,6.33609183673469,5.35093163265306,4.62983571428571,5.03774285714286,4.18224591836735,4.36707755102041,4.69682857142857,2.96016326530612,3.69179591836735,-1119.1406
3,1,6.24861530612245,5.4956112244898,4.75741224489796,5.21571428571429,4.15585714285714,4.63647244897959,4.76285918367347,3.13032551020408,3.75729081632653,-1118.1641
3,1,6.29997755102041,5.53953265306122,4.70839183673469,5.24904795918367,3.98834795918367,4.54973979591837,4.66482448979592,2.86005612244898,3.64389489795918,-1117.1875
3,1,6.18331530612245,5.33905918367347,4.54774387755102,5.34829897959184,3.71087959183673,4.33681224489796,4.41536734693878,2.52442244897959,3.35591632653061,-1116.2109
3,1,5.76126632653061,4.95128571428571,4.29788163265306,5.20794489795918,3.30330714285714,4.11348163265306,4.09235816326531,2.40791326530612,3.09182142857143,-1115.2344
3,1,5.51421020408163,4.7208387755102,4.11917346938776,5.06756530612245,3.12248673469388,3.89234591836735,3.92095816326531,2.31219285714286,2.89769183673469,-1114.2578
3,1,5.68331734693878,4.85626836734694,4.27546428571429,5.22555306122449,3.29948979591837,3.93107857142857,4.01133775510204,2.3935387755102,2.99052959183673,-1113.2813
3,1,6.12460612244898,5.19616632653061,4.56612755102041,5.2548887755102,3.8126193877551,4.02288673469388,4.47298571428571,2.53227040816327,3.37792448979592,-1112.3047
3,1,6.43780918367347,5.31267551020408,4.64724795918367,5.19317857142857,4.35722142857143,4.05607857142857,4.9754,2.51872755102041,3.68854387755102,-1111.3281
3,1,6.53625918367347,5.30838265306122,4.66644489795918,4.96473775510204,4.65212448979592,4.02668469387755,5.06907244897959,2.46168571428571,3.68108775510204,-1110.3516
3,1,6.72124489795918,5.5128193877551,4.88000816326531,5.00446734693878,4.62242244897959,4.11841326530612,4.90285612244898,2.53976836734694,3.56924693877551,-1109.375
3,1,6.93957755102041,5.84363571428571,5.25925510204082,5.51074081632653,5.01457346938775,4.48857040816327,5.19597244897959,3.03226530612245,3.76434489795918,-1108.3984
3,1,6.60342959183673,5.55735102040816,5.0043,5.52069081632653,5.07024693877551,4.3800806122449,5.1363,3.01657040816327,3.65247040816327,-1107.4219
3,1,6.11807346938776,5.07830714285714,4.55056326530612,5.43279795918367,4.94197244897959,4.17643979591837,4.90965102040816,2.91285612244898,3.45934795918367,-1106.4453
3,1,6.0772387755102,4.93369285714286,4.43319387755102,5.65723163265306,5.15746836734694,4.16907244897959,4.89177755102041,2.86239591836735,3.51885204081633,-1105.4688
3,1,6.24226326530612,5.01229693877551,4.52025918367347,6.08640816326531,5.38455204081633,4.31454285714286,4.93262959183673,2.84902755102041,3.52880204081633,-1104.4922
3,1,6.06204285714286,4.7335612244898,4.14680204081633,6.18411530612245,4.83930612244898,4.12170714285714,4.50784489795918,2.45286632653061,3.07200204081633,-1103.5156
3,1,6.18833163265306,4.85623163265306,4.19527755102041,6.26819489795918,4.89447551020408,4.10338367346939,4.67847857142857,2.36894285714286,3.2203306122449,-1102.5391
3,1,6.16949693877551,5.003,4.37395,5.94603469387755,4.84332857142857,4.11533469387755,4.84781530612245,2.55980816326531,3.51047857142857,-1101.5625
3,1,5.7445693877551,4.62356836734694,4.11514081632653,5.07797653061225,4.29807959183673,3.73479489795918,4.50681734693878,2.2911887755102,3.23585612244898,-1100.5859
3,1,5.29646326530612,4.23140714285714,3.84163367346939,4.47904897959184,3.98912755102041,3.53834489795918,4.39893469387755,2.12677857142857,3.12967959183673,-1099.6094
3,1,5.51038775510204,4.40242040816327,4.1219193877551,4.61950714285714,4.01986326530612,3.85073265306122,4.7661112244898,2.48255204081633,3.66339897959184,-1098.6328
3,1,5.68824183673469,4.52120510204082,4.31785918367347,4.68588163265306,4.13415510204082,4.01958163265306,5.24824183673469,2.63813979591837,4.1811806122449,-1097.6563
3,1,5.64932040816327,4.38332551020408,4.10842448979592,4.80113367346939,4.0840612244898,3.95840408163265,5.16469285714286,2.42644489795918,4.11212755102041,-1096.6797
3,1,5.64741326530612,4.37221326530612,4.08697142857143,4.9389193877551,4.20303469387755,4.00521632653061,5.10211020408163,2.52023469387755,4.09349795918367,-1095.7031
3,1,5.45182857142857,4.24716836734694,4.01084285714286,4.63636734693878,4.30368469387755,3.79702959183673,5.04157448979592,2.46070510204082,3.77500714285714,-1094.7266
3,1,5.23405816326531,4.06941836734694,3.83111428571429,4.20195816326531,4.12950918367347,3.50658265306122,4.89122857142857,2.30828979591837,3.56762857142857,-1093.75
3,1,5.23974795918367,4.12199897959184,3.97375102040816,3.89307857142857,4.16253469387755,3.50979897959184,5.14834489795918,2.3745193877551,3.84679081632653,-1092.7734
3,1,5.27808571428571,4.30813775510204,4.1297,3.72071224489796,4.11809387755102,3.64879693877551,5.12039591836735,2.62292448979592,3.85445816326531,-1091.7969
3,1,5.34648265306122,4.30730918367347,4.01705918367347,3.68398367346939,3.69379693877551,3.54242551020408,4.65301734693878,2.51443775510204,3.47540510204082,-1090.8203
3,1,5.84195816326531,4.61460918367347,4.33260102040816,4.47013979591837,3.92064081632653,3.66518367346939,4.91842551020408,2.51957040816327,3.70309183673469,-1089.8438
3,1,6.69963775510204,5.34287755102041,4.95085510204082,5.66864183673469,4.73528469387755,4.27936326530612,5.54395306122449,2.89966428571429,4.17880510204082,-1088.8672
3,1,7.30562142857143,5.91688469387755,5.31110918367347,6.38386734693878,5.25907040816327,4.88737244897959,6.08402346938775,3.33901428571429,4.66464693877551,-1087.8906
3,1,7.22580612244898,5.8001112244898,5.19818571428571,6.29207244897959,5.0362112244898,4.9715,6.07687448979592,3.45770306122449,4.7979612244898,-1086.9141
3,1,6.83775102040816,5.44126632653061,4.8935387755102,5.75655510204082,4.25740204081633,4.54978469387755,5.46684183673469,3.12413163265306,4.34001734693878,-1085.9375
3,1,6.47020612244898,5.02152959183673,4.52977142857143,5.24034591836735,3.66144591836735,4.30210102040816,4.78388163265306,2.97219897959184,3.83463469387755,-1084.9609
3,1,6.44290816326531,5.07901326530612,4.64258163265306,4.95375510204082,3.78197244897959,4.41169081632653,4.82056734693878,3.06661836734694,4.09603469387755,-1083.9844
3,1,6.61453469387755,5.3431887755102,4.8207693877551,5.07026020408163,4.24317653061224,4.53013979591837,5.03288163265306,3.17345204081633,4.37845,-1083.0078
3,1,7.04042244897959,5.72420510204082,4.96292040816327,5.40928571428571,4.94809897959184,4.6522387755102,5.27079387755102,3.08820408163265,4.48151428571429,-1082.0313
3,1,7.07458571428571,5.63580612244898,4.81202755102041,5.19307040816327,5.3354112244898,4.32551020408163,5.47896530612245,2.54060204081633,4.47835612244898,-1081.0547
3,1,6.91337448979592,5.50758673469388,4.79797244897959,4.87924795918367,5.68297448979592,3.97093265306122,5.70772244897959,2.26955612244898,4.68174285714286,-1080.0781
3,1,6.88701224489796,5.5396306122449,4.82417244897959,4.90770612244898,5.83350816326531,3.94902040816327,5.69726632653061,2.35583673469388,4.60477346938776,-1079.1016
3,1,7.09046632653061,5.54490204081633,4.84836734693878,5.11206326530612,5.69914693877551,4.10252551020408,5.68455,2.44778979591837,4.46687653061224,-1078.125
3,1,7.01187959183673,5.37481224489796,4.71789081632653,5.31381428571429,5.07299693877551,4.15520612244898,5.27958775510204,2.49555204081633,4.18176326530612,-1077.1484
3,1,6.94247142857143,5.35655306122449,4.70015816326531,5.46454081632653,4.48272551020408,4.27395918367347,5.16356530612245,2.6828112244898,4.07752346938775,-1076.1719
3,1,6.67465816326531,5.20098469387755,4.58535306122449,5.49994183673469,3.88367755102041,4.14793265306122,5.05445510204082,2.49178163265306,4.07209693877551,-1075.1953
3,1,6.39171020408163,5.15260714285714,4.52753571428571,5.37026428571429,3.54987346938776,4.02389591836735,4.94052857142857,2.34088367346939,4.09550408163265,-1074.2188
3,1,6.2125193877551,5.06939795918367,4.46404183673469,5.29424081632653,3.36911632653061,4.10115408163265,4.52945612244898,2.44751326530612,3.76834591836735,-1073.2422
3,1,6.11754285714286,4.94690102040816,4.4391693877551,5.16449591836735,3.26217142857143,4.09801020408163,4.30963469387755,2.55693979591837,3.68641836734694,-1072.2656
3,1,6.29239183673469,5.05199285714286,4.4831887755102,5.00944693877551,3.57138469387755,4.04128469387755,4.2896887755102,2.51212653061224,3.59940510204082,-1071.2891
3,1,6.4919,5.18997551020408,4.55734897959184,5.15393571428571,3.97936836734694,4.11874693877551,4.31807653061225,2.45701224489796,3.62190816326531,-1070.3125
3,1,6.53835612244898,5.21056224489796,4.54933367346939,5.28078571428571,4.15186428571429,4.25895408163265,4.27515714285714,2.53465714285714,3.61849897959184,-1069.3359
3,1,6.53925816326531,5.23229285714286,4.58223469387755,5.04705306122449,4.35878265306122,4.21155816326531,4.38328571428571,2.49880612244898,3.55644183673469,-1068.3594
3,1,6.61619897959184,5.39820714285714,4.59393469387755,4.97168265306122,4.74876836734694,4.21847653061224,4.59927857142857,2.52674693877551,3.74827551020408,-1067.3828
3,1,6.80817448979592,5.71189591836735,4.83054387755102,5.3369,4.98264897959184,4.53887857142857,4.85273265306122,2.78200816326531,4.08187346938776,-1066.4063
3,1,6.97139795918367,5.91109591836735,5.09764387755102,5.77364285714286,5.18273163265306,4.95254183673469,5.17127755102041,3.13447653061224,4.31438469387755,-1065.4297
3,1,7.02165612244898,5.85686530612245,5.02321632653061,5.93338367346939,5.22690510204082,4.95341326530612,4.99847551020408,3.22284387755102,4.14428775510204,-1064.4531
3,1,6.80714081632653,5.59493469387755,4.79798571428571,5.77068571428571,5.16057755102041,4.67540918367347,4.78060306122449,3.03594795918367,3.9704306122449,-1063.4766
3,1,6.58122346938775,5.44453469387755,4.67032448979592,5.53899183673469,4.72355204081633,4.4170387755102,4.72130408163265,2.66297857142857,3.87396836734694,-1062.5
3,1,6.72155612244898,5.54623673469388,4.7986112244898,5.71818979591837,4.57477040816326,4.4401,4.79101734693878,2.51607755102041,3.92604183673469,-1061.5234
3,1,7.00283673469388,5.71851734693878,4.87784387755102,5.98546632653061,4.3636693877551,4.3786806122449,4.76968469387755,2.21051632653061,3.85907346938775,-1060.5469
3,1,7.03319387755102,5.75274693877551,4.94836836734694,6.03371224489796,4.09177959183674,4.33091530612245,4.72285204081633,2.0908693877551,3.88720204081633,-1059.5703
3,1,6.9644693877551,5.76737857142857,5.03404591836735,5.99240204081633,3.86734387755102,4.37631632653061,4.68927755102041,2.17800714285714,4.02345204081633,-1058.5938
3,1,6.8209693877551,5.7389387755102,5.02686224489796,5.68449489795918,3.77588571428571,4.28126428571429,4.66372142857143,2.15802857142857,3.85362142857143,-1057.6172
3,1,6.52269387755102,5.45971836734694,4.80972857142857,5.33781224489796,3.61315612244898,4.12664897959184,4.59551326530612,2.21177346938775,3.63385816326531,-1056.6406
3,1,6.19426632653061,5.17162142857143,4.58685816326531,5.05693265306122,3.23875408163265,3.99099285714286,4.29906428571429,2.14478775510204,3.33273469387755,-1055.6641
3,1,6.19236326530612,5.11382653061225,4.65039591836735,4.77639693877551,3.34792755102041,3.9239,4.32110306122449,2.07952346938776,3.35109489795918,-1054.6875
3,1,6.15756224489796,5.08063265306122,4.78371428571429,4.46121632653061,3.26052142857143,3.96431224489796,4.23815102040816,2.21535714285714,3.44453163265306,-1053.7109
3,1,5.95619897959184,4.98348673469388,4.85715,4.27401530612245,3.37175510204082,3.98873673469388,4.17655408163265,2.24628775510204,3.57570714285714,-1052.7344
3,1,6.00794897959184,5.01416428571429,4.89584489795918,4.24337346938776,3.57817653061224,4.08739489795918,4.50045816326531,2.29082755102041,3.81633469387755,-1051.7578
3,1,5.9754612244898,4.9931112244898,4.81410102040816,4.12867448979592,3.5863,4.00033367346939,4.51921326530612,2.1770806122449,3.66032346938776,-1050.7813
3,1,6.00470612244898,4.90493979591837,4.55427040816327,4.19938979591837,3.87638979591837,3.78531326530612,4.53903367346939,1.84340408163265,3.44983265306122,-1049.8047
3,1,6.20772244897959,5.04310408163265,4.58643775510204,4.49945306122449,4.10684081632653,3.75590102040816,4.46793673469388,1.56309897959184,3.09821020408163,-1048.8281
3,1,6.53743673469388,5.25534183673469,4.83610306122449,4.67522857142857,4.33074081632653,3.78253775510204,4.82348979591837,1.42232551020408,3.24580816326531,-1047.8516
3,1,6.21843163265306,4.95306530612245,4.68965102040816,4.15330102040816,4.16761224489796,3.44865714285714,4.74368571428571,1.32461530612245,3.25476224489796,-1046.875
3,1,5.98257346938776,4.8131112244898,4.66190204081633,3.88542959183673,3.97857040816327,3.33047448979592,4.68736428571429,1.42641734693878,3.33091632653061,-1045.8984
3,1,6.09751020408163,4.87474897959184,4.64636224489796,4.15344183673469,3.9193612244898,3.39264081632653,4.70389387755102,1.41120102040816,3.25398469387755,-1044.9219
3,1,6.28255204081633,5.04606836734694,4.77321836734694,4.58116632653061,4.0193387755102,3.66667755102041,4.81858775510204,1.6904806122449,3.32963673469388,-1043.9453
3,1,6.30770612244898,5.02750816326531,4.6101,4.73352959183674,3.91305408163265,3.51534897959184,4.60314897959184,1.57262653061224,3.22960714285714,-1042.9688
3,1,6.36516734693878,4.92693469387755,4.39620306122449,4.78976836734694,4.14579897959184,3.24818673469388,4.53392040816327,1.17103265306122,3.12597551020408,-1041.9922
3,1,6.85240612244898,5.27357040816327,4.66725,5.04765,4.91915918367347,3.28692959183673,4.93085816326531,1.09770918367347,3.4021887755102,-1041.0156
3,1,6.98129693877551,5.41660204081633,4.68986530612245,4.82983265306122,5.06540102040816,3.21072142857143,5.11193163265306,0.997019387755102,3.5425887755102,-1040.0391
3,1,6.60249795918367,5.1674306122449,4.40151734693878,4.51632653061225,4.81343265306122,2.95490918367347,5.01971428571429,0.7749,3.27124183673469,-1039.0625
3,1,6.55080204081633,5.16848673469388,4.40277959183673,4.78968775510204,4.86066734693878,3.10043469387755,4.98339693877551,0.841236734693878,3.08484387755102,-1038.0859
3,1,6.64536224489796,5.41103163265306,4.7250806122449,5.2951806122449,4.98159489795918,3.50663571428571,5.20268367346939,1.1280806122449,3.37809795918367,-1037.1094
3,1,6.85462142857143,5.71622244897959,4.98581326530612,5.9139887755102,4.9831806122449,3.91518469387755,5.28294081632653,1.42531326530612,3.53856836734694,-1036.1328
3,1,6.99496326530612,5.69098469387755,5.06120510204082,6.14858469387755,4.6104693877551,3.98522755102041,5.07433673469388,1.35154387755102,3.2786806122449,-1035.1563
3,1,6.72471428571429,5.24468979591837,4.81665918367347,5.26389081632653,3.88257755102041,3.42291734693878,4.79593571428571,0.914421428571429,3.02356632653061,-1034.1797
3,1,6.95996734693878,5.49810714285714,4.96605612244898,5.21131632653061,4.24600408163265,3.41133571428571,5.22439081632653,0.908675510204082,3.29554183673469,-1033.2031
3,1,7.39154387755102,6.01597653061225,5.35117142857143,5.90031326530612,5.33348571428571,3.87159183673469,5.84041428571429,1.32738673469388,3.81946530612245,-1032.2266
3,1,7.7456112244898,6.32790918367347,5.61375204081633,6.4768193877551,5.95958571428571,4.25451632653061,6.15909897959184,1.63486530612245,4.15017959183673,-1031.25
3,1,8.23962346938776,6.75787653061225,5.86479591836735,6.87249387755102,6.35191632653061,4.6199193877551,6.37516428571429,1.89714897959184,4.32079285714286,-1030.2734
3,1,8.29277244897959,6.82784897959184,5.79152653061224,6.59777346938776,6.53361734693878,4.58985918367347,6.52774285714286,1.98688469387755,4.44615408163265,-1029.2969
3,1,8.04523673469388,6.69312857142857,5.70791530612245,6.06380306122449,6.49388571428571,4.34876632653061,6.48220510204082,1.96661428571429,4.35871224489796,-1028.3203
3,1,8.05553571428571,6.75535204081633,5.83673469387755,5.63342142857143,6.20645510204082,4.10388265306122,6.31457040816327,1.75419183673469,4.32784285714286,-1027.3438
3,1,8.18864285714286,6.86049081632653,5.90410102040816,5.85857346938776,5.81020918367347,4.19879897959184,6.23835612244898,1.65557448979592,4.26826020408163,-1026.3672
3,1,7.93979489795918,6.6781387755102,5.70391530612245,5.87753469387755,5.24172653061224,4.13639489795918,6.12812551020408,1.58257755102041,4.1349806122449,-1025.3906
3,1,7.89713979591837,6.6637193877551,5.71139387755102,6.07931428571429,4.90234693877551,4.20790714285714,5.91262244897959,1.61263367346939,3.92282959183673,-1024.4141
3,1,8.04096224489796,6.7022112244898,5.8296887755102,6.17329081632653,5.13615918367347,4.23666530612245,6.12185306122449,1.73327346938776,4.10230918367347,-1023.4375
3,1,8.30981224489796,6.93938673469388,5.95435306122449,6.39245510204082,5.34474081632653,4.36212959183673,6.28184387755102,1.85248469387755,4.37091428571429,-1022.4609
3,1,8.23328571428571,6.81799387755102,5.80874387755102,6.40155612244898,5.03668163265306,4.37585714285714,5.88985612244898,1.80330510204082,4.0199693877551,-1021.4844
3,1,8.04408775510204,6.61198775510204,5.69352653061225,6.12856632653061,4.88183673469388,4.28219489795918,5.86408469387755,1.72549693877551,4.12375918367347,-1020.5078
3,1,7.80879897959184,6.35145102040816,5.5389612244898,5.75027653061225,5.00257551020408,4.0839306122449,5.98168673469388,1.55645102040816,4.29177244897959,-1019.5313
3,1,7.61014285714286,6.06465612244898,5.23275510204082,5.62178367346939,4.8797806122449,3.92769693877551,5.86944693877551,1.38624591836735,4.10860918367347,-1018.5547
3,1,7.60402346938776,6.0685112244898,5.17235408163265,5.99759081632653,5.07759795918367,4.10231734693878,6.05461020408163,1.53510102040816,4.09464489795918,-1017.5781
3,1,7.72264591836735,6.26117448979592,5.36607551020408,5.93331836734694,5.23367346938775,4.17118163265306,6.19584489795918,1.61886020408163,4.20270102040816,-1016.6016
3,1,8.05377551020408,6.55941734693878,5.60776428571429,5.76636734693878,5.7529,4.32539489795918,6.36892448979592,1.77436224489796,4.37113571428571,-1015.625
3,1,7.93395816326531,6.39733367346939,5.48920102040816,5.6837112244898,5.81373571428571,4.36250408163265,6.1817112244898,1.83553775510204,4.13480918367347,-1014.6484
3,1,7.55881836734694,6.06326224489796,5.24017551020408,5.35247040816327,5.47474183673469,4.20957551020408,5.99250510204082,1.80195306122449,3.98964183673469,-1013.6719
3,1,7.53169795918367,5.98946326530612,5.16196224489796,5.40157040816327,5.66042857142857,4.20757551020408,6.12619081632653,1.76090816326531,4.13186632653061,-1012.6953
3,1,7.56525408163265,5.95165204081633,5.13813469387755,5.58914183673469,6.07696632653061,4.18914183673469,6.13182959183673,1.60375,4.18263367346939,-1011.7188
3,1,7.08600204081633,5.35610102040816,4.67069285714286,4.93516326530612,5.90093469387755,3.73295714285714,5.70208265306122,1.15828979591837,3.84063469387755,-1010.7422
3,1,6.41974591836735,4.65174081632653,3.99140714285714,4.09240612244898,5.53260306122449,3.05639285714286,5.10462244897959,0.520775510204082,3.36970204081633,-1009.7656
3,1,6.17204693877551,4.47615510204082,3.84039183673469,3.54684183673469,5.51946326530612,2.6846387755102,5.10319081632653,0.347026530612245,3.46234183673469,-1008.7891
3,1,6.17225714285714,4.55521530612245,4.00171632653061,3.20197653061224,5.52240918367347,2.76118163265306,5.33559081632653,0.616912244897959,3.68871224489796,-1007.8125
3,1,5.87987959183674,4.33929081632653,3.82202346938776,2.89358775510204,5.3174387755102,2.52120612244898,5.17721632653061,0.598181632653061,3.58835816326531,-1006.8359
3,1,5.68467448979592,4.13267448979592,3.63971428571429,2.55472653061224,5.01953469387755,2.16158775510204,4.7985306122449,0.414530612244898,3.27520408163265,-1005.8594
3,1,5.52499387755102,4.01851020408163,3.52154693877551,2.54723367346939,4.29641326530612,2.18359081632653,4.27554591836735,0.475762244897959,2.90819693877551,-1004.8828
3,1,5.52630204081633,4.13074795918367,3.61896530612245,2.80616020408163,3.97934897959184,2.49976326530612,4.13482142857143,0.792355102040816,2.99018367346939,-1003.9063
3,1,5.49079795918367,4.2093806122449,3.68474693877551,3.00473673469388,3.96010306122449,2.65747244897959,4.24346326530612,0.872281632653061,2.98560612244898,-1002.9297
3,1,5.72140612244898,4.38772142857143,3.9194612244898,3.38179693877551,3.99017142857143,2.86316530612245,4.38973469387755,0.97015306122449,3.05340102040816,-1001.9531
3,1,6.28542346938776,4.80979897959184,4.33146734693878,4.29673775510204,4.44403163265306,3.4158193877551,4.97682653061224,1.41653571428571,3.62347346938776,-1000.9766
3,1,6.53256836734694,5.05008673469388,4.5267693877551,4.88950714285714,4.4584193877551,3.74475510204082,5.16675306122449,1.75890612244898,3.82439591836735,-1000.0
3,1,6.17006734693878,4.7071193877551,4.34002142857143,4.33505612244898,4.0440806122449,3.4923112244898,4.81617653061225,1.56113673469388,3.59255714285714,-999.0234
3,1,5.66893979591837,4.21742857142857,4.02312755102041,3.56748163265306,3.51660612244898,3.08408979591837,4.33539081632653,1.2026693877551,3.23983265306122,-998.0469
3,1,5.71562448979592,4.35514897959184,4.1819887755102,3.58946530612245,3.69242448979592,3.14601428571429,4.33817857142857,1.32915816326531,3.23535510204082,-997.0703
3,1,6.2986112244898,5.02060612244898,4.75571326530612,3.96399591836735,4.33717040816327,3.61017142857143,5.11285816326531,1.88447959183673,4.09455,-996.0938
3,1,6.72645816326531,5.48999795918367,5.08340204081633,4.19108163265306,5.13340918367347,3.8428,5.84107755102041,2.00959795918367,4.58203979591837,-995.1172
3,1,7.17552959183673,5.74160816326531,5.21230714285714,4.71641428571429,5.85299897959184,4.08394183673469,6.25279081632653,2.12220612244898,4.7787887755102,-994.1406
3,1,7.42359489795918,5.96920510204082,5.36237551020408,4.97206734693878,6.25619489795918,4.20664387755102,6.46367346938776,2.18741632653061,4.8668193877551,-993.1641
3,1,7.25227448979592,5.8637,5.14187755102041,4.83690714285714,6.25665918367347,3.90655510204082,6.22259081632653,1.87904081632653,4.59043367346939,-992.1875
3,1,6.94959693877551,5.56004591836735,4.79302959183673,4.63480816326531,6.0678387755102,3.49910612244898,5.80150306122449,1.48808775510204,4.19642959183673,-991.2109
3,1,6.6302112244898,5.32532346938776,4.62876836734694,4.52988469387755,5.46640816326531,3.50545510204082,5.26738979591837,1.59787551020408,3.79374183673469,-990.2344
3,1,6.60493571428571,5.30713265306122,4.62509285714286,4.53659897959184,4.88322244897959,3.62006428571429,4.93982551020408,1.75873469387755,3.54678571428571,-989.2578
3,1,6.97456326530612,5.5766387755102,4.86282142857143,4.89525816326531,4.73743673469388,3.8712612244898,5.13810816326531,1.91991428571429,3.87874795918367,-988.2813
3,1,7.05916020408163,5.59305714285714,4.8967612244898,5.09152857142857,4.72560816326531,4.01820612244898,5.34218673469388,2.05978673469388,4.07076734693878,-987.3047
3,1,6.89717244897959,5.5136,4.84767755102041,4.99831836734694,4.64339285714286,3.98866020408163,5.41063979591837,2.09041326530612,4.04873979591837,-986.3281
3,1,6.92417448979592,5.60791020408163,4.99936836734694,5.32663979591837,4.84400510204082,4.16510102040816,5.62461530612245,2.16242653061224,4.20718673469388,-985.3516
3,1,6.81962448979592,5.42871020408163,4.91878571428571,5.58607857142857,4.59678367346939,4.33915714285714,5.4405193877551,2.30966224489796,4.07781326530612,-984.375
3,1,6.91240510204082,5.39511224489796,4.88217244897959,5.50342551020408,4.92980714285714,4.35478979591837,5.58006530612245,2.32858571428571,4.1006887755102,-983.3984
3,1,7.10973979591837,5.57139693877551,5.07419081632653,5.36100102040816,5.24094285714286,4.42115816326531,5.9308193877551,2.53745,4.47274183673469,-982.4219
3,1,7.49668265306122,6.04773775510204,5.49289081632653,5.55600714285714,5.45987959183674,4.64972142857143,6.29839489795918,2.81190816326531,4.80400408163265,-981.4453
3,1,7.58564693877551,6.27147755102041,5.65734693877551,5.56087959183674,5.5308193877551,4.69537653061224,6.24750816326531,3.00828265306122,4.87207755102041,-980.4688
3,1,7.25512551020408,5.89986326530612,5.32813775510204,5.29010816326531,5.32552857142857,4.40289387755102,6.14077551020408,2.84864285714286,4.72747857142857,-979.4922
3,1,6.84306734693878,5.36216428571429,4.82807448979592,4.9708306122449,4.64034591836735,3.9933112244898,5.61083367346939,2.43877551020408,4.22603571428571,-978.5156
3,1,6.50172040816327,5.01778979591837,4.57997346938776,4.68530306122449,4.16360102040816,3.66498469387755,5.09307040816326,2.00680918367347,3.84313469387755,-977.5391
3,1,6.58840306122449,5.07133979591837,4.74034897959184,4.77588979591837,4.30300306122449,3.74911836734694,5.24745408163265,2.0234306122449,3.92451326530612,-976.5625
3,1,6.36035,5.00374081632653,4.70741326530612,4.45733673469388,3.8788612244898,3.65749183673469,5.06867346938775,2.02305918367347,3.78158265306122,-975.5859
3,1,6.13459897959184,5.06903673469388,4.79994795918367,4.20065714285714,3.35283571428571,3.63663163265306,4.96400408163265,2.11767244897959,3.83358469387755,-974.6094
3,1,5.99815714285714,5.02752040816326,4.74042346938776,3.7278306122449,3.12616326530612,3.50075510204082,4.84294183673469,2.11241224489796,3.80984795918367,-973.6328
3,1,6.02520306122449,5.09035816326531,4.93564693877551,3.37677142857143,3.27945204081633,3.57984489795918,5.10937142857143,2.23541734693878,4.11248367346939,-972.6563
3,1,5.9159612244898,5.01640714285714,5.1059612244898,3.11335714285714,3.33800612244898,3.59897653061224,5.49219285714286,2.32121326530612,4.45573571428571,-971.6797
3,1,5.65581020408163,4.83137551020408,5.00115102040816,3.01819387755102,3.28884591836735,3.49643571428571,5.42470102040816,2.31237142857143,4.48684693877551,-970.7031
3,1,5.45185306122449,4.59425714285714,4.75120816326531,3.10832244897959,3.32715102040816,3.39278367346939,5.17175714285714,2.19391224489796,4.32587346938775,-969.7266
3,1,5.38060612244898,4.38757959183673,4.57063367346939,3.40945102040816,3.44767959183673,3.40224081632653,5.04469693877551,2.14765714285714,4.23578367346939,-968.75
3,1,5.58736836734694,4.48921836734694,4.62623571428571,3.94038979591837,3.77098265306122,3.59984591836735,5.16111020408163,2.19869183673469,4.24406020408163,-967.7734
3,1,6.07276020408163,4.87615102040816,4.91206428571429,4.83622755102041,4.30720306122449,4.02415306122449,5.51324693877551,2.36784897959184,4.3709193877551,-966.7969
3,1,6.53128979591837,5.30710204081633,5.2002387755102,5.26088367346939,4.67611224489796,4.34453571428571,5.89920204081633,2.53422040816327,4.55348673469388,-965.8203
3,1,6.95164489795918,5.64315102040816,5.49138163265306,5.56056428571429,4.81680306122449,4.65121428571429,6.12494081632653,2.64389081632653,4.77280510204082,-964.8438
3,1,7.13469081632653,5.67184591836735,5.53389387755102,5.62276224489796,4.96167959183673,4.73489285714286,6.18598163265306,2.70572959183673,4.77828163265306,-963.8672
3,1,7.1147612244898,5.50702551020408,5.4558806122449,5.33858775510204,5.27969183673469,4.59419183673469,6.41947959183674,2.67695204081633,4.93717448979592,-962.8906
3,1,7.02495510204082,5.37906530612245,5.27429795918367,4.87968265306122,5.22984081632653,4.3752306122449,6.31057040816327,2.50823469387755,4.73638265306122,-961.9141
3,1,6.69923163265306,5.11008367346939,5.05405918367347,4.10647857142857,4.65722244897959,3.76873265306122,6.06085102040816,2.05270510204082,4.5452387755102,-960.9375
3,1,6.64719489795918,5.18304489795918,5.10839591836735,3.93729489795918,4.36329897959184,3.65047040816327,5.96837755102041,1.94167551020408,4.55859897959184,-959.9609
3,1,6.3532112244898,4.94899489795918,4.9317693877551,3.60836428571429,4.13928775510204,3.58190816326531,5.70418367346939,1.82824081632653,4.32255306122449,-958.9844
3,1,6.53069693877551,5.1351387755102,5.09114591836735,3.72691326530612,3.99624489795918,3.74027346938776,5.59151734693878,1.94132551020408,4.20996836734694,-958.0078
3,1,6.90156530612245,5.33426836734694,5.21200714285714,4.02264387755102,4.20919897959184,3.91291734693878,5.8975387755102,2.00470306122449,4.43352346938776,-957.0313
3,1,6.74948775510204,5.08479591836735,4.96986428571429,3.86240612244898,4.29406224489796,3.61686734693878,5.79966836734694,1.65233163265306,4.30100714285714,-956.0547
3,1,6.78124591836735,5.13751632653061,4.9348612244898,3.93207346938776,4.13669489795918,3.54613265306122,5.5860693877551,1.4789806122449,4.10038673469388,-955.0781
3,1,7.19531428571429,5.4447612244898,5.10785204081633,4.55914795918367,4.5835112244898,3.82080408163265,5.89243367346939,1.63614387755102,4.24478367346939,-954.1016
3,1,7.29566632653061,5.47595918367347,5.09569897959184,4.76339285714286,4.87534795918367,3.88774795918367,6.1887887755102,1.73998979591837,4.51279081632653,-953.125
3,1,6.98563673469388,5.22536020408163,4.81100918367347,4.79095918367347,4.40936632653061,3.85482551020408,5.82971836734694,1.60941428571429,4.1757193877551,-952.1484
3,1,6.98097551020408,5.26123367346939,4.7740193877551,4.86083775510204,4.35301836734694,3.90418367346939,5.50480102040816,1.50986836734694,3.77322346938776,-951.1719
3,1,7.13410408163265,5.37192857142857,4.78145714285714,4.63894591836735,4.5227112244898,3.82442653061224,5.41456836734694,1.42421530612245,3.76477653061225,-950.1953
3,1,7.19686530612245,5.42548775510204,4.8313806122449,4.31788775510204,4.95554591836735,3.85084081632653,5.71037346938776,1.59521428571429,3.96082244897959,-949.2188
3,1,7.27219285714286,5.52821020408163,5.01117448979592,4.21113469387755,5.14004489795918,4.02943265306122,5.89767653061224,1.82986428571429,4.11823163265306,-948.2422
3,1,7.10002755102041,5.56115510204082,5.11748265306122,4.33276530612245,5.08532448979592,4.12285816326531,5.98323163265306,2.02327244897959,4.24418673469388,-947.2656
3,1,6.75317040816326,5.2338,4.79045510204082,4.33367448979592,4.91271326530612,3.85993673469388,5.62753265306122,1.9194806122449,3.89059183673469,-946.2891
3,1,6.80699591836735,5.24925714285714,4.56899897959184,4.49497755102041,5.18648979591837,3.60707040816327,5.43253265306122,1.68125918367347,3.66489693877551,-945.3125
3,1,6.69783979591837,5.10563571428571,4.3199193877551,4.50545102040816,5.03470612244898,3.43996734693878,5.03611326530612,1.46160102040816,3.43102346938776,-944.3359
3,1,6.40141836734694,4.75224183673469,3.87586836734694,4.11813367346939,4.34800102040816,3.20543673469388,4.50737244897959,1.28545,2.99221428571429,-943.3594
3,1,6.2407387755102,4.54119489795918,3.62844387755102,3.90555102040816,3.98145714285714,3.07599591836735,4.49032040816327,1.08434183673469,2.89447755102041,-942.3828
3,1,6.14084693877551,4.43011734693878,3.52479489795918,3.54486428571429,3.85283979591837,2.90233265306122,4.53394897959184,0.924181632653061,3.05991224489796,-941.4063
3,1,5.67209183673469,4.02142040816326,3.15524489795918,2.7926387755102,3.10960408163265,2.44466428571429,3.98610612244898,0.636375510204082,2.67001632653061,-940.4297
3,1,5.39164693877551,3.77018775510204,2.82433469387755,2.53001224489796,2.90568265306122,2.22562040816327,3.59488571428571,0.489412244897959,2.3500693877551,-939.4531
3,1,5.39090408163265,3.70933367346939,2.71079183673469,2.7321112244898,3.23514897959184,2.3049,3.51280306122449,0.510397959183673,2.17293775510204,-938.4766
3,1,5.46980714285714,3.71181836734694,2.62473163265306,2.8004693877551,3.58181530612245,2.24365408163265,3.51826734693878,0.373433673469388,2.0185387755102,-937.5
3,1,5.25414897959184,3.55477551020408,2.41915306122449,2.66744183673469,3.29769183673469,1.99589897959184,3.32420204081633,0.0576653061224491,1.82172244897959,-936.5234
3,1,5.41587346938775,3.64481224489796,2.46705714285714,2.9526306122449,3.3315806122449,2.16218265306122,3.3866887755102,0.116713265306122,1.96085,-935.5469
3,1,5.72080102040816,3.78087653061224,2.62528673469388,3.44494387755102,3.60889285714286,2.48480816326531,3.66254285714286,0.442016326530612,2.15534183673469,-934.5703
3,1,5.84891734693878,3.87110612244898,2.65979387755102,3.48899183673469,3.57423469387755,2.55829387755102,3.75833265306122,0.625085714285714,2.15973571428571,-933.5938
3,1,5.56286530612245,3.65836836734694,2.50624081632653,3.02842142857143,3.41030510204082,2.32627959183673,3.46080102040816,0.517740816326531,1.83542755102041,-932.6172
3,1,5.26584795918367,3.3802,2.31037244897959,2.74068163265306,3.28506224489796,2.18955918367347,3.18523265306122,0.400086734693878,1.59562142857143,-931.6406
3,1,4.83596530612245,3.08944183673469,2.12625714285714,2.57423571428571,2.92618979591837,2.08167142857143,3.17329693877551,0.334394897959184,1.6783306122449,-930.6641
3,1,4.45997142857143,2.84449591836735,1.87989387755102,2.25969489795918,2.30488673469388,1.92259795918367,3.14292040816327,0.230359183673469,1.92159387755102,-929.6875
3,1,4.33654795918367,2.71568163265306,1.77200510204082,2.01500510204082,1.9405387755102,1.8286806122449,3.06280714285714,0.10575612244898,2.01812040816327,-928.7109
3,1,4.49176530612245,2.82966224489796,1.98106224489796,2.2515,1.88387142857143,2.06994693877551,3.25715306122449,0.345922448979592,2.11463367346939,-927.7344
3,1,4.48524591836735,2.88213775510204,2.07808163265306,2.34952653061224,1.88626734693878,2.09982755102041,3.40625204081633,0.309178571428571,2.07684387755102,-926.7578
3,1,4.77701326530612,3.08207346938776,2.27607142857143,2.53875,2.14974183673469,2.22676836734694,3.67481836734694,0.414505102040816,2.32270408163265,-925.7813
3,1,5.12947244897959,3.25321326530612,2.42375,3.25477653061224,2.61978571428571,2.52398775510204,3.85902040816327,0.597130612244898,2.50532653061224,-924.8047
3,1,5.05720408163265,3.32424387755102,2.51909795918367,3.74446326530612,2.35739285714286,2.70153265306122,3.76188367346939,0.782413265306123,2.47707755102041,-923.8281
3,1,5.34219897959184,3.66694591836735,2.81277857142857,4.06304081632653,2.54367653061224,2.87305612244898,3.88736326530612,0.965522448979592,2.51412448979592,-922.8516
3,1,6.02165612244898,4.1494887755102,3.18016224489796,4.70446326530612,3.40530918367347,3.22792448979592,4.24351734693878,1.15174693877551,2.69618571428571,-921.875
3,1,6.45554795918367,4.46070204081633,3.43668673469388,5.02902040816327,4.1170112244898,3.49218367346939,4.7562612244898,1.28887653061224,3.16547857142857,-920.8984
3,1,6.69251224489796,4.7568612244898,3.70111734693878,5.10952959183673,4.53724693877551,3.49108265306122,5.14693571428571,1.30847653061225,3.44523979591837,-919.9219
3,1,6.57965510204082,4.81782448979592,3.83734897959184,5.05011020408163,4.3193806122449,3.40502653061224,5.06552653061225,1.19769489795918,3.46154081632653,-918.9453
3,1,6.59341326530612,4.9823693877551,4.0196193877551,5.20624387755102,4.04425408163265,3.54090612244898,5.0665612244898,1.3624612244898,3.58416734693878,-917.9688
3,1,6.65976632653061,5.10654183673469,4.05202551020408,5.23153571428571,4.25213469387755,3.50530714285714,5.06538367346939,1.3454693877551,3.37751224489796,-916.9922
3,1,6.83469693877551,5.12235612244898,4.0004387755102,5.05603979591837,4.05494183673469,3.38641020408163,5.05409591836735,1.20556734693878,3.20217346938776,-916.0156
3,1,6.8745112244898,5.02086020408163,3.98542244897959,4.80189693877551,3.5908112244898,3.30204693877551,4.88177448979592,1.09974693877551,3.18620510204082,-915.0391
3,1,7.13737857142857,5.20765102040816,4.17911530612245,4.7833806122449,3.68626020408163,3.53374693877551,4.91005204081633,1.42619591836735,3.35565714285714,-914.0625
3,1,7.13314897959184,5.17311530612245,4.25489591836735,4.39970204081633,3.78580510204082,3.44186326530612,4.89830408163265,1.56134795918367,3.39653571428571,-913.0859
3,1,7.0307193877551,5.13897653061225,4.37711734693878,3.92282040816327,3.74746734693878,3.25840102040816,4.81046632653061,1.4066887755102,3.36506020408163,-912.1094
3,1,7.25182653061225,5.39169183673469,4.64240816326531,3.78476224489796,4.15896530612245,3.32426428571429,5.12493163265306,1.39061020408163,3.55311632653061,-911.1328
3,1,7.33650816326531,5.44530816326531,4.68349693877551,3.8251806122449,4.60548163265306,3.32493265306122,5.30139183673469,1.28823775510204,3.55535918367347,-910.1563
3,1,7.28578571428571,5.59592244897959,4.87968469387755,4.13260918367347,4.8739387755102,3.54862959183673,5.65795102040816,1.52081428571429,3.70459183673469,-909.1797
3,1,7.36683163265306,5.78046632653061,5.13995612244898,4.40912857142857,4.91421020408163,3.7740887755102,5.98187857142857,1.68548775510204,3.99258673469388,-908.2031
3,1,7.77909693877551,6.13379897959184,5.46510510204082,4.71194591836735,5.33348673469388,3.92207346938776,6.28888775510204,1.76374285714286,4.49938163265306,-907.2266
3,1,7.82682959183673,6.0855612244898,5.39594387755102,4.77497040816327,5.20949489795918,3.82024795918367,6.1475693877551,1.63904897959184,4.50296632653061,-906.25
3,1,7.74122857142857,6.01599897959184,5.18974183673469,4.9146806122449,5.10584081632653,3.63433775510204,5.78583265306122,1.37689081632653,4.1858612244898,-905.2734
3,1,8.06126734693878,6.42533979591837,5.57557142857143,5.28578979591837,5.44697959183673,3.91007653061224,5.99506632653061,1.59767551020408,4.39224183673469,-904.2969
3,1,8.35159183673469,6.78796734693878,6.05262244897959,5.53730816326531,5.96590612244898,4.37303979591837,6.54831836734694,2.0708193877551,4.86172040816327,-903.3203
3,1,8.11882448979592,6.63832653061224,5.90636428571429,5.1911387755102,5.82271224489796,4.28145918367347,6.54896836734694,2.14008775510204,4.92247142857143,-902.3438
3,1,7.65865306122449,6.11687244897959,5.37078163265306,4.78748367346939,5.21997040816326,3.91757653061225,5.99784081632653,1.77406224489796,4.4033693877551,-901.3672
3,1,7.38584081632653,5.73907346938775,5.05804795918367,4.64080408163265,4.82503775510204,3.72442448979592,5.67444489795918,1.46805,4.07566224489796,-900.3906
3,1,7.49310816326531,5.73966224489796,5.06666734693878,5.14830612244898,4.84402755102041,3.94024081632653,5.84654285714286,1.59750408163265,4.03248265306122,-899.4141
3,1,7.98927040816327,6.13093265306122,5.39064897959184,5.88396428571429,5.60101326530612,4.29955816326531,6.23154693877551,1.74543979591837,4.21579081632653,-898.4375
3,1,8.20910714285714,6.24954183673469,5.43613163265306,6.14487857142857,5.94968775510204,4.37849285714286,6.24169183673469,1.67519591836735,4.29519081632653,-897.4609
3,1,7.8576112244898,5.82705306122449,4.99536734693878,5.63406836734694,5.60455612244898,3.9858387755102,5.9657112244898,1.39373163265306,4.08572244897959,-896.4844
3,1,7.60657857142857,5.60157959183673,4.82730612244898,5.40685,5.68835714285714,3.81582653061225,6.13394897959184,1.35635102040816,4.28753265306122,-895.5078
3,1,7.23184693877551,5.1143693877551,4.5008887755102,4.76712142857143,5.19570306122449,3.51472040816327,5.96534591836735,1.2476112244898,4.25328775510204,-894.5313
3,1,6.84731632653061,4.72464897959184,4.23849489795918,4.12782244897959,4.86875612244898,3.32666632653061,5.84084081632653,1.23827653061224,4.26224591836735,-893.5547
3,1,6.83050918367347,4.74432959183673,4.28414183673469,4.05844285714286,4.82684489795918,3.42947040816327,5.76681530612245,1.30156020408163,4.16735306122449,-892.5781
3,1,6.91291836734694,4.70430816326531,4.18139795918367,4.08893979591837,4.59139489795918,3.30804285714286,5.57056836734694,1.09452040816327,3.80357755102041,-891.6016
3,1,7.08138979591837,4.75084387755102,4.10854183673469,4.32137959183673,4.70418469387755,3.33263367346939,5.73439591836735,1.03677244897959,3.88948469387755,-890.625
3,1,7.02743265306122,4.68342653061224,3.88736836734694,4.40233979591837,4.3677693877551,3.28382346938776,5.5993387755102,0.970529591836735,3.84424489795918,-889.6484
3,1,6.35365408163265,4.32446428571429,3.68787755102041,4.14157040816327,3.36606530612245,3.02464183673469,4.81044387755102,0.80994387755102,3.42450816326531,-888.6719
3,1,6.34366224489796,4.54531224489796,3.95549387755102,4.25182653061225,3.07117857142857,3.19029387755102,4.8437306122449,1.11076224489796,3.76561326530612,-887.6953
3,1,6.6523112244898,4.84101326530612,4.06549693877551,4.66417653061225,3.59807653061225,3.30650612244898,5.05088265306122,1.22942142857143,3.78521530612245,-886.7188
3,1,6.77807551020408,4.93397857142857,4.23248265306122,4.98546530612245,4.16990204081633,3.44875714285714,5.16893367346939,1.37376428571429,3.78064795918367,-885.7422
3,1,6.65455510204082,4.76227959183673,4.31916632653061,4.85828979591837,4.13181326530612,3.42069591836735,5.29624693877551,1.41842653061224,4.04033979591837,-884.7656
3,1,6.85673265306122,4.83605204081633,4.36103775510204,5.03026734693878,4.15989489795918,3.52187244897959,5.40143775510204,1.46211224489796,4.17519795918367,-883.7891
3,1,6.83310816326531,4.81374081632653,4.31334591836735,4.88984897959184,4.04428673469388,3.59006734693878,5.2751612244898,1.49138673469388,4.12015714285714,-882.8125
3,1,6.44946530612245,4.51825306122449,4.01109285714286,4.34972959183673,3.78119387755102,3.3335193877551,4.86959795918367,1.26934591836735,3.78459795918367,-881.8359
3,1,6.43580918367347,4.65921836734694,4.13902448979592,4.51654693877551,4.05201632653061,3.50802755102041,5.01592755102041,1.5579806122449,3.8305806122449,-880.8594
3,1,6.78822755102041,5.07075408163265,4.4160693877551,5.2692806122449,4.60108571428571,3.99759387755102,5.46533775510204,2.04336632653061,4.16050408163265,-879.8828
3,1,6.90942959183673,5.05142346938776,4.40581224489796,5.35095408163265,4.50767755102041,4.10091020408163,5.57298469387755,2.0827612244898,4.14866428571429,-878.9063
3,1,6.62657653061224,4.68874081632653,4.12115612244898,4.63631428571429,4.07295714285714,3.67619693877551,5.30842040816327,1.67474183673469,3.85840204081633,-877.9297
3,1,6.6084612244898,4.68141530612245,4.12551224489796,4.35139795918367,3.96399183673469,3.52845102040816,5.23613265306122,1.45925714285714,3.82659897959184,-876.9531
3,1,6.55597244897959,4.63671530612245,4.00656326530612,4.25134183673469,3.82095714285714,3.50855714285714,4.99336836734694,1.45469693877551,3.67607040816327,-875.9766
3,1,6.53193469387755,4.68131632653061,4.09284591836735,4.10992142857143,3.62406224489796,3.53417040816327,4.8769887755102,1.59962551020408,3.52401326530612,-875.0
3,1,6.52136428571429,4.78261836734694,4.13743673469388,3.9755887755102,3.58262959183673,3.38391734693878,4.84691734693878,1.5229612244898,3.48081428571429,-874.0234
3,1,6.16014081632653,4.54078979591837,3.90904897959184,3.91969183673469,3.3923193877551,3.16649693877551,4.42679897959184,1.28970918367347,3.04794693877551,-873.0469
3,1,6.12807448979592,4.61074183673469,3.91642653061224,3.92126326530612,3.49445510204082,3.06713367346939,4.40296020408163,1.07557448979592,3.00795918367347,-872.0703
3,1,6.16663469387755,4.67008979591837,4.03678775510204,4.10773469387755,3.69140714285714,3.08509081632653,4.49627346938775,1.09158469387755,3.00865918367347,-871.0938
3,1,5.90384081632653,4.37162959183673,3.8686693877551,3.84295,3.32282959183673,2.93874081632653,4.23788265306122,1.01977755102041,2.87564489795918,-870.1172
3,1,5.3799306122449,3.86708265306122,3.41461530612245,2.95823775510204,2.79957448979592,2.65410612244898,3.81909387755102,0.958919387755102,2.51724183673469,-869.1406
3,1,4.80757653061224,3.4341112244898,3.00776326530612,2.17081530612245,2.35411224489796,2.26546224489796,3.29917244897959,0.785363265306123,1.96054795918367,-868.1641
3,1,4.78152653061225,3.40573367346939,3.01495306122449,2.34352040816327,1.97941734693878,2.29599591836735,3.09707959183673,0.837142857142857,1.87183979591837,-867.1875
3,1,5.24068265306122,3.65483163265306,3.17468163265306,2.99055510204082,2.03211530612245,2.51823163265306,3.10186632653061,0.958441836734694,1.93258571428571,-866.2109
3,1,5.51239387755102,3.94489387755102,3.38099285714286,3.14747040816327,2.22283775510204,2.63948571428571,3.25203979591837,1.08422551020408,2.0811193877551,-865.2344
3,1,5.51553775510204,3.88485102040816,3.32812755102041,3.0247887755102,2.3836112244898,2.66267653061225,3.45755,1.12710102040816,2.29794081632653,-864.2578
3,1,5.42221530612245,3.62324897959184,3.14465714285714,2.64954897959184,2.30090408163265,2.58345918367347,3.45871836734694,1.06837959183673,2.35798979591837,-863.2813
3,1,5.45465306122449,3.59983367346939,3.17606734693878,2.85635306122449,2.42089897959184,2.79059897959184,3.36870510204082,1.26236224489796,2.29826734693878,-862.3047
3,1,5.69775918367347,3.73210204081633,3.34707959183673,2.89194081632653,3.13169183673469,2.93545102040816,3.67326224489796,1.43406632653061,2.50177040816327,-861.3281
3,1,5.80369591836735,3.91663163265306,3.55685510204082,2.98589795918367,3.51879591836735,3.15089183673469,3.88941224489796,1.67655612244898,2.70567857142857,-860.3516
3,1,5.8192612244898,4.0124693877551,3.54914387755102,3.41243469387755,3.29457551020408,3.42606326530612,3.7934112244898,1.93795918367347,2.68760816326531,-859.375
3,1,5.4108193877551,3.66094591836735,3.18413775510204,3.29965714285714,2.77090102040816,3.23138571428571,3.41638673469388,1.76942653061224,2.48665510204082,-858.3984
3,1,5.29883775510204,3.60610612244898,3.16455,3.54152142857143,2.90913775510204,3.36902959183673,3.50299693877551,1.9023112244898,2.61128163265306,-857.4219
3,1,5.33189795918367,3.62318469387755,3.06878673469388,3.72197040816327,2.54649081632653,3.48135918367347,3.34546530612245,1.98461632653061,2.3859387755102,-856.4453
3,1,5.58242755102041,3.74028571428571,3.10236734693878,4.04999387755102,2.30146224489796,3.6694306122449,3.30742959183673,1.97084693877551,2.29478367346939,-855.4688
3,1,5.4782,3.46335102040816,2.89354795918367,3.84688775510204,2.30828673469388,3.42930306122449,3.17063571428571,1.71225714285714,2.10664183673469,-854.4922
3,1,5.17666326530612,3.14193775510204,2.69189489795918,3.3520193877551,2.15783979591837,3.18892959183673,2.87540510204082,1.6318306122449,1.73296734693878,-853.5156
3,1,5.12768265306122,3.25357040816327,2.91011734693878,3.27083979591837,2.25365306122449,3.24296326530612,3.02686020408163,1.7384806122449,1.97208367346939,-852.5391
3,1,5.3945306122449,3.53286326530612,3.12188673469388,3.23593469387755,2.7058306122449,3.17484897959184,3.54610612244898,1.62989693877551,2.47087040816327,-851.5625
3,1,5.50687448979592,3.54645816326531,3.14314285714286,3.11493775510204,2.67031326530612,3.14010612244898,3.67370204081633,1.67697448979592,2.6875,-850.5859
3,1,5.57829795918367,3.49876326530612,2.97917551020408,3.12145306122449,2.79428163265306,3.08400510204082,3.74990510204082,1.59307959183673,2.84241734693878,-849.6094
3,1,5.83645,3.65407959183673,3.16641224489796,3.30263775510204,2.98329591836735,3.27357653061225,3.97128469387755,1.81396326530612,3.02357040816327,-848.6328
3,1,5.76423163265306,3.65589489795918,3.17187551020408,3.10455714285714,3.04124081632653,3.05068979591837,3.86531224489796,1.6538193877551,2.81957857142857,-847.6563
3,1,5.87461632653061,3.7476612244898,3.01168265306122,3.31226224489796,3.48504081632653,2.76980714285714,3.9722806122449,1.19711020408163,2.64756428571429,-846.6797
3,1,6.42712959183673,4.23074693877551,3.22585510204082,4.07840612244898,4.34803469387755,3.00898469387755,4.4731112244898,1.13966734693878,2.92065714285714,-845.7031
3,1,6.54942448979592,4.21297653061225,3.17189081632653,4.24218673469388,4.3590693877551,2.95315408163265,4.24671224489796,0.910388775510204,2.76554897959184,-844.7266
3,1,6.47349489795918,4.08838979591837,2.96134387755102,4.2308693877551,3.87846020408163,2.8491387755102,3.93642346938776,0.696158163265306,2.50535306122449,-843.75
3,1,6.39970306122449,3.99427959183673,2.78949387755102,4.31147653061224,3.77912653061225,2.70221326530612,4.00079081632653,0.451635714285714,2.40302959183673,-842.7734
3,1,6.15863979591837,3.86185204081633,2.5732306122449,4.07135306122449,3.46673469387755,2.37130408163265,3.88040612244898,0.0533295918367348,2.20788367346939,-841.7969
3,1,5.96697448979592,3.71704795918367,2.37418775510204,3.74169489795918,3.16222551020408,2.17584183673469,3.50869183673469,-0.0996775510204082,2.04772755102041,-840.8203
3,1,5.70089183673469,3.3821112244898,2.14020714285714,3.6060306122449,2.77391428571429,2.12294897959184,3.05923367346939,-0.199737755102041,1.59690306122449,-839.8438
3,1,6.00734795918367,3.72815102040816,2.41626428571429,4.00849285714286,3.28925918367347,2.40724081632653,3.52500612244898,0.0977602040816326,1.98347244897959,-838.8672
3,1,6.14640918367347,4.08506530612245,2.74341632653061,4.29352346938775,3.62516224489796,2.51816428571429,3.74698367346939,0.296677551020408,2.32540306122449,-837.8906
3,1,5.95943163265306,3.86252244897959,2.57521224489796,4.23557346938775,3.53198469387755,2.42923775510204,3.73857857142857,0.216872448979592,2.2345112244898,-836.9141
3,1,5.62757857142857,3.39457040816327,2.20493775510204,3.79996632653061,3.3785806122449,2.19771530612245,3.65993469387755,0.0138561224489797,2.03527142857143,-835.9375
3,1,5.35189387755102,3.11768571428571,2.01011326530612,3.0615112244898,3.31461428571429,1.96684795918367,3.75686326530612,-0.143778571428571,2.06515918367347,-834.9609
3,1,5.3624112244898,3.10775204081633,2.09491632653061,2.8285,3.44567244897959,2.06914591836735,3.88835102040816,-0.0747326530612246,2.20497346938776,-833.9844
3,1,5.60354897959184,3.2378806122449,2.2466887755102,2.98893979591837,3.25391224489796,2.20257448979592,3.7675193877551,-0.0243193877551021,2.10812448979592,-833.0078
3,1,5.98384285714286,3.43263469387755,2.32315,3.0478612244898,3.52463265306122,2.09881632653061,3.87399897959184,-0.0907530612244897,2.2546693877551,-832.0313
3,1,5.99365510204082,3.44765408163265,2.38616020408163,3.43010714285714,3.43832346938775,2.14437142857143,3.9702,-0.0962775510204082,2.46023265306122,-831.0547
3,1,5.77738673469388,3.32311836734694,2.45897040816327,3.56057653061224,2.90129591836735,2.15347040816327,3.87838469387755,-0.0272204081632653,2.49452244897959,-830.0781
3,1,5.73732653061225,3.44755408163265,2.55629897959184,3.70485816326531,2.67621530612245,2.23933469387755,3.73003979591837,0.207394897959184,2.4243,-829.1016
3,1,5.7740387755102,3.55750102040816,2.55243979591837,3.74805816326531,2.87446530612245,2.17622448979592,3.60035,0.244936734693877,2.34250612244898,-828.125
3,1,5.65465204081633,3.36503163265306,2.43876530612245,3.38765204081633,3.32557653061225,1.94599489795918,3.57110408163265,-0.0051285714285714,2.30476530612245,-827.1484
3,1,5.37071326530612,3.04990714285714,2.39654387755102,3.0970693877551,3.18963979591837,1.82924489795918,3.55630714285714,-0.133560204081633,2.24770510204082,-826.1719
3,1,5.48917346938776,3.23965510204082,2.66713367346939,3.39691632653061,3.60820102040816,2.13918673469388,3.94622346938775,0.0802397959183673,2.61952551020408,-825.1953
3,1,5.26221020408163,3.10915204081633,2.52979489795918,3.0211806122449,3.35159081632653,2.03474795918367,3.85384795918367,0.0071530612244898,2.72439591836735,-824.2188
3,1,5.05344693877551,2.85399693877551,2.28705918367347,2.7035806122449,2.92842244897959,1.80169795918367,3.66307346938776,-0.0993418367346939,2.7672387755102,-823.2422
3,1,5.36574591836735,2.98923673469388,2.3594306122449,3.34431428571429,3.27173673469388,2.05336224489796,4.00017959183673,-0.050476530612245,2.96898571428571,-822.2656
3,1,5.70790816326531,3.31969795918367,2.56000918367347,3.73575102040816,3.71835510204082,2.27227551020408,4.16511530612245,0.0274857142857143,2.97225816326531,-821.2891
3,1,6.14771734693878,3.75279387755102,2.88806836734694,4.01057244897959,4.27729081632653,2.53543673469388,4.29237346938775,0.322762244897959,2.95165714285714,-820.3125
3,1,6.09212040816327,3.72668265306122,2.98903367346939,3.8132806122449,4.30883469387755,2.41298469387755,4.14604387755102,0.260885714285714,2.70443673469388,-819.3359
3,1,5.87734897959184,3.53824795918367,2.85095612244898,3.4256612244898,4.0866,2.18874795918367,4.0804612244898,0.033608163265306,2.61925816326531,-818.3594
3,1,5.67716836734694,3.32163367346939,2.62889489795918,3.00123367346939,3.81249285714286,1.8852887755102,4.05824387755102,-0.22845612244898,2.54622346938776,-817.3828
3,1,5.89579897959184,3.61469489795918,2.88304285714286,3.00266836734694,4.06877244897959,1.97253469387755,4.31864183673469,-0.01950306122449,2.91645714285714,-816.4063
3,1,6.26564285714286,3.97326734693878,3.17710612244898,3.36419693877551,4.7081387755102,2.30055918367347,4.70434081632653,0.320428571428571,3.36013265306122,-815.4297
3,1,6.4113612244898,4.08830306122449,3.2583612244898,3.73373265306122,4.88632653061225,2.54492755102041,4.76436734693878,0.501021428571429,3.43617448979592,-814.4531
3,1,6.44084591836735,4.14543163265306,3.34105306122449,4.00142857142857,5.24116734693878,2.68489183673469,4.90791632653061,0.590234693877551,3.60922448979592,-813.4766
3,1,6.68136326530612,4.3910112244898,3.65622346938776,4.53556836734694,5.69395408163265,3.11594183673469,5.06953571428571,0.950521428571429,3.65109285714286,-812.5
3,1,6.45098775510204,4.27646632653061,3.47156326530612,4.72183979591837,5.35365408163265,3.25454693877551,4.67765612244898,1.00833571428571,3.24414795918367,-811.5234
3,1,6.39494591836735,4.24991326530612,3.25219591836735,4.94137142857143,5.13431836734694,3.13010306122449,4.40626326530612,0.883104081632653,3.06134081632653,-810.5469
3,1,6.22074081632653,4.0625,2.91961020408163,4.86979795918367,4.86058979591837,2.81286326530612,4.12154285714286,0.558964285714286,2.70891632653061,-809.5703
3,1,6.14689081632653,4.0659,2.79687755102041,4.77065204081633,4.38184285714286,2.66131224489796,3.87104081632653,0.500102040816326,2.50166326530612,-808.5938
3,1,6.49439285714286,4.29575102040816,2.92777653061224,4.92710102040816,4.25597142857143,2.83795,3.88348367346939,0.653162244897959,2.59934795918367,-807.6172
3,1,6.99399897959184,4.76681734693878,3.32634795918367,5.07210816326531,4.53184183673469,3.1249306122449,4.33854285714286,0.906221428571429,3.07914081632653,-806.6406
3,1,6.9810806122449,4.73809183673469,3.33912040816327,5.06335816326531,4.57548979591837,3.17157346938776,4.47343775510204,0.869131632653061,3.00526530612245,-805.6641
3,1,6.74787551020408,4.37823979591837,2.91267755102041,4.74216734693878,4.28810510204082,3.00259591836735,4.16411020408163,0.632028571428571,2.51335510204082,-804.6875
3,1,6.58259183673469,4.15324183673469,2.60934489795918,4.12923163265306,4.00650816326531,2.63352448979592,3.7735612244898,0.304804081632653,2.18999081632653,-803.7109
3,1,6.53410510204082,4.05510408163265,2.41826530612245,3.96185612244898,4.08699183673469,2.50824387755102,3.67490918367347,0.137236734693878,2.09825408163265,-802.7344
3,1,6.42469795918367,3.89427653061224,2.27312448979592,3.88287857142857,4.15127857142857,2.43109285714286,3.6964112244898,0.0905877551020409,2.06950204081633,-801.7578
3,1,6.28069285714286,3.80368571428571,2.10789081632653,3.67089285714286,4.21757142857143,2.23675714285714,3.66106020408163,-0.051311224489796,2.12951734693878,-800.7813
3,1,6.13517755102041,3.79481326530612,2.08984591836735,3.6846806122449,4.12720714285714,2.18644591836735,3.46357244897959,-0.121054081632653,1.84557755102041,-799.8047
3,1,5.71333979591837,3.50005816326531,1.93755918367347,3.41794591836735,3.54270918367347,1.90392551020408,2.97660918367347,-0.347498979591837,1.41918979591837,-798.8281
3,1,5.74391734693878,3.58918979591837,2.00262244897959,3.60701224489796,3.43591020408163,2.07493265306122,2.9254693877551,-0.0010428571428572,1.43701020408163,-797.8516
3,1,5.79598367346939,3.61825306122449,2.01032142857143,3.93927959183673,3.64383367346939,2.27606020408163,3.05662653061224,0.153220408163265,1.39587653061224,-796.875
