subject,condition,Fz,FCz,Cz,FC3,FC4,C3,C4,CP3,CP4,time_ms
2,1,1.397906,1.59803,1.996098,1.147876,0.915366,1.663346,1.791674,2.083105,0.446612,-1500.0
2,1,1.137663,1.349818,1.785948,0.996167,0.608596,1.469739,1.692933,1.844246,0.27527,-1499.0234
2,1,1.204305,1.484039,1.897482,1.234075,0.814216,1.699579,1.839792,2.005922,0.36219,-1498.0469
2,1,1.330392,1.668035,2.065085,1.420718,0.96976,1.927178,1.906691,2.258536,0.546948,-1497.0703
2,1,1.372268,1.677598,2.131392,1.318214,0.922504,1.781587,1.916981,2.190416,0.637646,-1496.0938
2,1,1.560391,1.860444,2.331902,1.330964,0.998386,1.914662,1.980299,2.306752,0.843031,-1495.1172
2,1,1.730642,1.995373,2.517968,1.41814,1.285899,2.089592,2.121751,2.452425,1.079206,-1494.1406
2,1,1.699,1.927643,2.456378,1.437343,1.445515,1.935591,2.156074,2.315513,1.033204,-1493.1641
2,1,1.648328,1.88201,2.339217,1.490204,1.604886,1.879136,2.144017,2.334426,0.940133,-1492.1875
2,1,1.545148,1.822845,2.24993,1.582373,1.539257,1.872939,2.069538,2.229571,0.736835,-1491.2109
2,1,1.526293,1.816159,2.084041,1.617432,1.335256,1.820549,2.072205,2.054808,0.601494,-1490.2344
2,1,1.450432,1.679732,1.946587,1.594333,1.235066,1.709704,1.918462,1.918074,0.490503,-1489.2578
2,1,1.311093,1.481887,1.74437,1.489157,1.107288,1.577949,1.731717,1.71762,0.250368,-1488.2813
2,1,1.320956,1.486429,1.694054,1.466806,0.992017,1.535208,1.742946,1.580482,0.121138,-1487.3047
2,1,1.456019,1.572549,1.763287,1.507865,1.128211,1.652978,1.884815,1.719195,0.236226,-1486.3281
2,1,1.506784,1.623945,1.812275,1.436807,1.295121,1.687111,2.02502,1.800513,0.299216,-1485.3516
2,1,1.582477,1.738596,1.958002,1.39476,1.57391,1.661917,2.229517,1.913044,0.477549,-1484.375
2,1,1.65494,1.875986,2.101464,1.316898,1.762836,1.608813,2.313077,1.96762,0.407592,-1483.3984
2,1,1.627839,1.888418,2.201361,1.317043,1.688938,1.628297,2.286356,2.117258,0.410295,-1482.4219
2,1,1.758686,1.993121,2.336813,1.422351,1.795672,1.751399,2.33727,2.288912,0.593156,-1481.4453
2,1,1.768427,1.964742,2.316147,1.456573,1.83021,1.735785,2.242466,2.124571,0.577139,-1480.4688
2,1,1.681288,1.890214,2.245248,1.366437,1.809066,1.736259,2.202094,2.07934,0.723079,-1479.4922
2,1,1.69653,1.904412,2.280993,1.260977,1.86459,1.803586,2.406765,2.149905,1.023309,-1478.5156
2,1,1.89512,2.122504,2.51222,1.237426,1.995395,2.022426,2.618041,2.315395,1.246544,-1477.5391
2,1,1.868574,2.168363,2.616698,1.172568,1.710046,2.016663,2.515203,2.304973,1.209256,-1476.5625
2,1,1.69916,1.988606,2.508027,0.956562,1.464333,1.766607,2.412154,2.20093,1.043713,-1475.5859
2,1,1.784203,2.038719,2.495405,0.895861,1.603779,1.710208,2.594748,2.147457,1.170877,-1474.6094
2,1,1.942564,2.134912,2.572281,1.049647,1.89128,1.870369,2.790823,2.246731,1.402897,-1473.6328
2,1,1.959919,2.120887,2.51234,1.063117,1.930487,1.882199,2.798387,2.307638,1.506188,-1472.6563
2,1,1.732445,1.891475,2.253327,0.89873,1.789919,1.674691,2.5163,2.144186,1.260447,-1471.6797
2,1,1.652909,1.78784,2.096804,0.892649,1.765496,1.616238,2.424384,2.13432,1.182002,-1470.7031
2,1,1.825705,1.911221,2.252512,1.080555,1.84022,1.762918,2.430654,2.262923,1.273276,-1469.7266
2,1,1.982981,2.082104,2.43357,1.512174,1.947159,1.997714,2.465003,2.421299,1.323629,-1468.75
2,1,2.08203,2.26158,2.541081,1.806358,2.066766,2.28813,2.611129,2.641375,1.45454,-1467.7734
2,1,2.097522,2.330272,2.662403,1.850645,2.124936,2.41794,2.790234,2.722464,1.453049,-1466.7969
2,1,2.216391,2.445796,2.773892,1.986831,2.220798,2.454057,2.90427,2.745416,1.469749,-1465.8203
2,1,2.551623,2.784724,3.123905,2.411036,2.384923,2.817143,3.035035,3.075309,1.727177,-1464.8438
2,1,2.5708,2.798441,3.16827,2.549332,2.293128,2.991648,2.93442,3.277117,1.723004,-1463.8672
2,1,2.444342,2.643029,3.016715,2.511719,2.045184,2.879104,2.80954,3.225141,1.515964,-1462.8906
2,1,2.573145,2.79873,3.17378,2.643232,2.142969,2.887163,2.980751,3.218637,1.679093,-1461.9141
2,1,2.6632,2.887249,3.286065,2.656758,2.36866,2.923956,3.23274,3.328644,1.929498,-1460.9375
2,1,2.619218,2.823799,3.195763,2.517132,2.250443,2.78571,3.237453,3.141366,1.916989,-1459.9609
2,1,2.347763,2.488192,2.948007,2.212694,1.969561,2.453586,3.001932,2.763148,1.770946,-1458.9844
2,1,2.035752,2.161666,2.699829,1.791555,1.841409,2.122839,2.806552,2.441756,1.615851,-1458.0078
2,1,2.067545,2.234285,2.686776,1.810524,1.89437,2.167724,2.861121,2.524469,1.705502,-1457.0313
2,1,2.32178,2.558577,2.983913,2.095069,2.137774,2.419635,3.040223,2.871383,1.914403,-1456.0547
2,1,2.519046,2.774498,3.195089,2.27908,2.349206,2.567432,3.149321,2.907304,2.000748,-1455.0781
2,1,2.622471,2.877912,3.287302,2.267185,2.36945,2.642298,3.163271,2.934855,1.916642,-1454.1016
2,1,2.595879,2.895567,3.275385,2.238802,2.358435,2.590534,3.161409,2.848,1.786637,-1453.125
2,1,2.564361,2.859348,3.229191,2.256815,2.320233,2.499673,3.125318,2.732354,1.679929,-1452.1484
2,1,2.535267,2.799201,3.197223,2.17539,2.379651,2.326851,3.118501,2.577776,1.60598,-1451.1719
2,1,2.528005,2.823669,3.275218,2.101099,2.476292,2.34247,3.083393,2.530812,1.496183,-1450.1953
2,1,2.446935,2.800604,3.233156,2.040092,2.487339,2.317422,3.075225,2.541191,1.334589,-1449.2188
2,1,2.490918,2.869469,3.228403,2.166617,2.583323,2.448239,3.197795,2.727171,1.533895,-1448.2422
2,1,2.4408,2.817035,3.140512,2.149802,2.52005,2.550459,3.244675,2.75129,1.640756,-1447.2656
2,1,2.238368,2.601036,3.008866,1.894077,2.30204,2.426976,3.081377,2.682642,1.495623,-1446.2891
2,1,2.190217,2.506001,2.967008,1.737509,2.081835,2.287012,3.030188,2.57612,1.44472,-1445.3125
2,1,2.310175,2.625574,3.034217,1.747906,2.139533,2.307545,3.110346,2.564074,1.50331,-1444.3359
2,1,2.400671,2.758985,3.124948,1.854017,2.153831,2.386605,3.229751,2.623806,1.562969,-1443.3594
2,1,2.46815,2.831474,3.187188,2.044466,2.114927,2.580907,3.271953,2.801621,1.627687,-1442.3828
2,1,2.506625,2.845601,3.140842,2.030873,2.006877,2.608993,3.22819,2.861644,1.67243,-1441.4063
2,1,2.63587,2.888033,3.141845,2.190964,2.17335,2.617493,3.358181,2.8973,1.840376,-1440.4297
2,1,2.691497,2.944249,3.224291,2.278785,2.300479,2.646638,3.401225,2.988549,1.938765,-1439.4531
2,1,2.718875,3.018693,3.304252,2.324786,2.295713,2.700974,3.319277,3.022548,1.854674,-1438.4766
2,1,2.919356,3.226737,3.527671,2.477588,2.563041,2.862606,3.516074,3.181603,1.941253,-1437.5
2,1,3.040001,3.345475,3.771328,2.610016,2.710356,2.983505,3.787081,3.384325,2.142859,-1436.5234
2,1,2.782629,3.134037,3.626086,2.445903,2.561896,2.826159,3.54743,3.266918,1.981589,-1435.5469
2,1,2.86848,3.217577,3.653099,2.604284,2.513771,2.913905,3.474295,3.308215,1.851884,-1434.5703
2,1,3.116519,3.419136,3.780768,2.933575,2.478614,3.123546,3.521657,3.405242,1.889247,-1433.5938
2,1,3.109343,3.411698,3.797252,2.931575,2.292614,3.113132,3.432409,3.335142,2.012663,-1432.6172
2,1,3.191106,3.442221,3.831213,2.937405,2.330731,3.117999,3.467757,3.266555,2.307867,-1431.6406
2,1,3.107126,3.39928,3.790307,2.952091,2.376846,3.087381,3.391028,3.295473,2.275034,-1430.6641
2,1,2.965303,3.327954,3.741634,2.972034,2.419598,3.087414,3.311407,3.28456,2.069824,-1429.6875
2,1,2.890511,3.326872,3.672325,3.050076,2.652774,3.117641,3.315917,3.279451,2.053089,-1428.7109
2,1,2.768532,3.206248,3.575811,2.811017,2.839563,3.026956,3.37581,3.20113,2.147236,-1427.7344
2,1,2.665949,3.034843,3.384115,2.474939,2.931179,2.801742,3.295946,3.021572,2.069751,-1426.7578
2,1,2.586641,2.872058,3.255676,2.250824,2.730833,2.68934,3.134646,2.898738,1.849438,-1425.7813
2,1,2.543611,2.798008,3.272379,2.14474,2.581923,2.66677,3.038258,2.848222,1.715767,-1424.8047
2,1,2.483635,2.755016,3.17925,2.155468,2.531889,2.693371,2.987533,2.851102,1.710002,-1423.8281
2,1,2.47568,2.730649,3.183903,2.245522,2.43324,2.835325,2.956979,2.931525,1.825995,-1422.8516
2,1,2.560147,2.837186,3.341999,2.238403,2.492869,2.886244,3.076194,3.04373,1.888243,-1421.875
2,1,2.401701,2.706685,3.188884,1.999042,2.395053,2.653609,2.963418,2.916372,1.490119,-1420.8984
2,1,2.165656,2.435431,2.897272,1.823787,2.256135,2.43239,2.771506,2.669186,1.070881,-1419.9219
2,1,2.067145,2.33775,2.813897,1.855207,2.187174,2.426772,2.714778,2.580886,1.017249,-1418.9453
2,1,2.026862,2.358743,2.835664,1.948111,2.104851,2.528288,2.684981,2.722114,1.09128,-1417.9688
2,1,1.934686,2.267284,2.68548,1.850208,1.863935,2.54031,2.478479,2.821664,1.066554,-1416.9922
2,1,1.862704,2.164127,2.595368,1.705586,1.692435,2.499346,2.271581,2.787279,0.95767,-1416.0156
2,1,1.814075,2.13266,2.597002,1.687127,1.635168,2.484113,2.338269,2.797252,0.868528,-1415.0391
2,1,1.776276,2.059461,2.547745,1.666536,1.522661,2.450111,2.322246,2.729202,0.771837,-1414.0625
2,1,1.774433,2.085466,2.602011,1.794872,1.487795,2.504642,2.139841,2.769084,0.708646,-1413.0859
2,1,2.035439,2.435875,2.835981,2.232111,1.69939,2.840367,2.478909,3.042998,1.059299,-1412.1094
2,1,2.193966,2.607457,2.94612,2.418211,1.846368,3.011366,2.762111,3.149372,1.385459,-1411.1328
2,1,1.926269,2.317293,2.718327,2.133935,1.539423,2.727512,2.469586,2.882976,0.999464,-1410.1563
2,1,1.506349,1.915522,2.358086,1.760561,1.271352,2.423574,2.067366,2.561686,0.62379,-1409.1797
2,1,1.488412,1.904559,2.272149,1.774864,1.393635,2.455248,2.065473,2.631445,0.672005,-1408.2031
2,1,1.669348,2.127127,2.457854,1.931763,1.66514,2.59649,2.381282,2.785332,0.89702,-1407.2266
2,1,1.790779,2.270977,2.636152,2.062098,1.78348,2.728772,2.637722,2.95356,1.160671,-1406.25
2,1,1.764396,2.303006,2.659653,2.159259,1.763049,2.810986,2.676065,3.052481,1.256222,-1405.2734
2,1,1.729728,2.214422,2.580921,2.129865,1.796335,2.742409,2.628009,2.949525,1.279816,-1404.2969
2,1,1.626652,2.003313,2.296279,1.984354,1.759803,2.578915,2.371795,2.703838,1.054406,-1403.3203
2,1,1.457682,1.740798,1.975057,1.645786,1.441885,2.353492,2.093938,2.540715,0.732244,-1402.3438
2,1,1.479359,1.770122,1.955156,1.579609,1.298619,2.283055,2.11844,2.518528,0.738735,-1401.3672
2,1,1.558633,1.850533,1.985179,1.62451,1.293753,2.330165,2.135766,2.482336,0.610055,-1400.3906
2,1,1.505971,1.826946,1.974035,1.668849,1.292418,2.31947,2.060114,2.446041,0.411833,-1399.4141
2,1,1.415877,1.807906,1.983272,1.697504,1.377288,2.288746,2.069957,2.532645,0.424671,-1398.4375
2,1,1.274594,1.736458,1.888785,1.583251,1.357109,2.139312,1.948032,2.493178,0.416731,-1397.4609
2,1,1.255144,1.732236,1.91462,1.55216,1.313212,2.138954,2.004227,2.533658,0.568839,-1396.4844
2,1,1.253812,1.759278,2.034066,1.650295,1.317791,2.228179,1.985787,2.633241,0.518644,-1395.5078
2,1,1.407435,1.900498,2.167437,1.871853,1.446811,2.357772,1.99232,2.726649,0.518355,-1394.5313
2,1,1.551149,2.01462,2.242573,2.015505,1.580947,2.376127,2.154213,2.729966,0.707107,-1393.5547
2,1,1.758939,2.216666,2.451499,2.161899,1.721755,2.590057,2.353242,2.894551,1.009096,-1392.5781
2,1,1.953596,2.421309,2.613734,2.382314,1.771843,2.832545,2.406769,3.04751,1.036719,-1391.6016
2,1,2.075794,2.516601,2.596205,2.412964,1.763914,2.81132,2.469538,3.019469,0.96983,-1390.625
2,1,2.04879,2.453571,2.459683,2.180416,1.717734,2.619197,2.357651,2.839832,0.892918,-1389.6484
2,1,1.895599,2.281358,2.342312,1.933758,1.677298,2.445861,2.285691,2.700599,0.836901,-1388.6719
2,1,1.891808,2.271545,2.412043,1.942005,1.795577,2.490957,2.410705,2.813011,1.038287,-1387.6953
2,1,1.970731,2.33897,2.495332,2.003931,2.044923,2.513721,2.562674,2.789129,1.158194,-1386.7188
2,1,1.763798,2.162602,2.344978,1.810822,2.000938,2.304754,2.460028,2.546788,1.028348,-1385.7422
2,1,1.530884,1.969126,2.130355,1.728402,1.865908,2.223973,2.319635,2.447312,0.876083,-1384.7656
2,1,1.626258,2.096537,2.188292,1.890927,1.941828,2.369025,2.395931,2.546714,0.967827,-1383.7891
2,1,1.755923,2.194531,2.341812,2.040311,1.952578,2.455378,2.432111,2.667302,1.053106,-1382.8125
2,1,1.746669,2.171129,2.428909,1.945016,1.887097,2.463353,2.451048,2.790151,1.113764,-1381.8359
2,1,1.532758,2.069038,2.379255,1.792882,1.904356,2.367247,2.416657,2.724667,1.009682,-1380.8594
2,1,1.37983,1.956949,2.369802,1.618802,1.633985,2.195413,2.362383,2.501124,0.854823,-1379.8828
2,1,1.417818,1.97098,2.339445,1.536636,1.529188,2.11878,2.288188,2.4033,0.883901,-1378.9063
2,1,1.518622,2.100753,2.385647,1.705863,1.766212,2.242092,2.395872,2.428963,0.972068,-1377.9297
2,1,1.444231,1.921933,2.154022,1.656765,1.937878,2.099909,2.310783,2.251396,0.803911,-1376.9531
2,1,1.294908,1.73113,1.994777,1.510042,1.93382,1.949684,2.142455,2.175379,0.683461,-1375.9766
2,1,1.196586,1.679273,1.931531,1.554062,1.764405,2.003138,2.07391,2.301494,0.598472,-1375.0
2,1,1.317238,1.805254,2.026905,1.547546,1.888503,2.175012,2.210573,2.396087,0.582827,-1374.0234
2,1,1.688696,2.145663,2.356466,1.777494,2.274188,2.358363,2.542108,2.518436,0.760711,-1373.0469
2,1,2.111674,2.524961,2.723038,2.232386,2.695588,2.658003,2.757213,2.792738,0.985752,-1372.0703
2,1,2.230584,2.587363,2.799836,2.34725,2.76126,2.705137,2.767557,2.864225,1.119901,-1371.0938
2,1,2.446988,2.717597,2.888641,2.549952,2.833798,2.846953,3.049677,2.980096,1.259529,-1370.1172
2,1,2.578531,2.826761,2.919416,2.769438,2.782936,3.003128,3.11835,2.988608,1.380854,-1369.1406
2,1,2.583682,2.866277,2.886033,2.812821,2.706554,2.935878,2.938646,2.898231,1.250378,-1368.1641
2,1,2.535894,2.810342,2.823456,2.786146,2.455571,2.874518,2.76375,2.871607,1.076846,-1367.1875
2,1,2.432987,2.718,2.772057,2.838318,2.279307,2.869176,2.77336,2.9316,1.017357,-1366.2109
2,1,2.339079,2.661415,2.807094,2.817885,2.303376,2.858284,2.75756,3.014458,1.031715,-1365.2344
2,1,2.311352,2.676378,2.886029,2.766752,2.317938,2.931877,2.732562,3.06635,1.045318,-1364.2578
2,1,2.254985,2.658295,2.856974,2.686726,2.388619,2.878139,2.759943,2.993345,0.926694,-1363.2813
2,1,2.185443,2.599761,2.754717,2.392717,2.674314,2.708026,2.781342,2.879899,1.016066,-1362.3047
2,1,2.134947,2.524513,2.596028,2.055124,2.869022,2.474317,2.695264,2.584569,0.966267,-1361.3281
2,1,2.256534,2.59802,2.663933,1.93468,2.93742,2.386769,2.657,2.51986,0.916982,-1360.3516
2,1,2.443854,2.812762,2.927654,2.02271,3.001357,2.504858,2.870176,2.650756,1.17852,-1359.375
2,1,2.407734,2.787211,2.913532,2.122863,2.959213,2.624824,2.927432,2.733597,1.31766,-1358.3984
2,1,2.320618,2.680403,2.816658,1.965554,2.908308,2.563593,3.007444,2.745283,1.359624,-1357.4219
2,1,2.317323,2.7014,2.839722,1.854201,2.724567,2.383728,3.116067,2.584532,1.219387,-1356.4453
2,1,2.327313,2.730645,2.882127,1.907526,2.58092,2.452087,3.096639,2.574608,1.190235,-1355.4688
2,1,2.443836,2.844636,3.037451,2.058886,2.612322,2.657638,3.072557,2.844742,1.477051,-1354.4922
2,1,2.613187,3.046561,3.186952,2.218272,2.612164,2.823312,3.210402,3.023445,1.698577,-1353.5156
2,1,2.398966,2.83636,2.984191,2.082608,2.444487,2.688771,3.132597,2.861926,1.551089,-1352.5391
2,1,2.229197,2.673348,2.872628,2.041409,2.420078,2.578549,2.993134,2.694207,1.351405,-1351.5625
2,1,1.977494,2.399734,2.537816,1.857422,2.229871,2.329554,2.686633,2.335479,1.062266,-1350.5859
2,1,1.73649,2.187727,2.342876,1.721318,1.950373,2.171231,2.525667,2.175573,0.905366,-1349.6094
2,1,1.80931,2.281824,2.400234,1.78397,1.925426,2.26191,2.564926,2.296881,1.081222,-1348.6328
2,1,2.087529,2.551109,2.592187,2.061183,2.333442,2.465135,2.791736,2.51194,1.3947,-1347.6563
2,1,2.216539,2.63074,2.726745,2.120569,2.449544,2.561843,2.930548,2.613457,1.607498,-1346.6797
2,1,2.096282,2.581752,2.740152,2.049696,2.269732,2.5698,2.906291,2.602407,1.610317,-1345.7031
2,1,1.819255,2.37268,2.485575,1.972331,1.971499,2.48688,2.6242,2.483506,1.402314,-1344.7266
2,1,1.780288,2.281925,2.240129,1.889561,1.915215,2.351558,2.443171,2.326736,1.226567,-1343.75
2,1,1.607299,2.030638,2.005489,1.716901,1.641292,2.165096,2.167788,2.220572,0.954926,-1342.7734
2,1,1.420509,1.79498,1.899821,1.406998,1.401582,1.929306,2.014839,2.032596,0.869994,-1341.7969
2,1,1.538301,1.985192,2.11036,1.346959,1.560143,1.944982,2.179924,1.994545,1.035129,-1340.8203
2,1,1.490598,2.01392,2.110006,1.316957,1.53527,2.037123,2.219712,2.068857,1.075333,-1339.8438
2,1,1.382646,1.951107,2.059033,1.266085,1.406686,2.003148,2.101159,2.064671,0.879888,-1338.8672
2,1,1.328492,1.88717,2.018868,1.242687,1.433789,1.899615,1.971107,2.033346,0.751671,-1337.8906
2,1,1.489337,2.042182,2.097767,1.407826,1.624628,1.942378,1.952861,2.05116,0.882869,-1336.9141
2,1,1.730789,2.299731,2.354012,1.721946,1.884706,2.227798,2.165521,2.291564,1.083269,-1335.9375
2,1,1.830333,2.445103,2.495451,1.876877,2.041607,2.440638,2.3738,2.501208,1.216732,-1334.9609
2,1,1.832951,2.445655,2.533293,1.916742,2.0829,2.514866,2.42573,2.593271,1.413508,-1333.9844
2,1,1.822919,2.402654,2.507124,1.974566,2.109738,2.536842,2.358374,2.582225,1.400913,-1333.0078
2,1,1.801075,2.373402,2.519252,1.910892,2.280666,2.471646,2.411497,2.591118,1.300011,-1332.0313
2,1,1.87305,2.435731,2.578397,1.844046,2.478387,2.313747,2.485575,2.43941,1.325864,-1331.0547
2,1,1.959736,2.503308,2.609956,1.959218,2.493431,2.349187,2.503228,2.327961,1.436287,-1330.0781
2,1,1.87313,2.443378,2.522784,2.046484,2.372717,2.448802,2.407228,2.3771,1.412357,-1329.1016
2,1,2.778365,3.317416,3.253403,3.51671,4.477419,3.127885,2.329734,2.870546,3.199579,-1328.125
2,1,2.647668,3.173001,3.141436,3.259034,4.515528,2.88744,2.232154,2.705774,3.200233,-1327.1484
2,1,2.705348,3.217212,3.159692,3.25207,4.619856,2.80984,2.344664,2.592369,3.217172,-1326.1719
2,1,2.895809,3.408147,3.363372,3.399836,4.599022,2.893371,2.507793,2.726731,3.293809,-1325.1953
2,1,3.006936,3.469884,3.420879,3.586948,4.44878,3.081413,2.434089,2.955109,3.284862,-1324.2188
2,1,2.936623,3.295209,3.233959,3.573411,4.03266,3.045862,2.172539,2.951677,3.170746,-1323.2422
2,1,2.7671,3.121767,3.101519,3.383324,3.736052,2.995589,2.090368,2.832108,3.101071,-1322.2656
2,1,2.631738,3.043392,3.037914,3.262414,3.859739,2.905379,2.184453,2.702514,3.171705,-1321.2891
2,1,2.52352,2.976908,2.985082,3.232297,3.82606,2.807294,2.20907,2.646679,3.19233,-1320.3125
2,1,2.43363,2.878055,3.00171,3.100087,3.77978,2.677706,2.189951,2.575608,3.095514,-1319.3359
2,1,2.772799,3.16771,3.313687,3.388457,4.307648,2.878797,2.486108,2.777705,3.349763,-1318.3594
2,1,2.961091,3.402237,3.494827,3.565642,4.486411,2.987888,2.610056,2.88503,3.521092,-1317.3828
2,1,2.955039,3.434998,3.481237,3.697469,4.301192,3.042514,2.507199,2.981387,3.465847,-1316.4063
2,1,2.914055,3.353288,3.32156,3.975303,4.039461,3.14777,2.291726,3.029909,3.316631,-1315.4297
2,1,2.866731,3.264566,3.239184,4.018722,3.936792,3.124598,2.177777,2.970229,3.15656,-1314.4531
2,1,3.044586,3.36765,3.30313,4.056324,4.098958,3.179629,2.303415,2.954723,3.224469,-1313.4766
2,1,3.172445,3.51218,3.33953,4.191528,4.282949,3.27465,2.34648,3.032914,3.307006,-1312.5
2,1,3.156043,3.551019,3.384663,4.177075,4.291847,3.22909,2.276883,2.992749,3.181179,-1311.5234
2,1,3.335775,3.821523,3.674371,4.146544,4.801785,3.383183,2.643123,3.138656,3.356929,-1310.5469
2,1,3.591331,4.1231,4.016802,4.248381,5.409255,3.569866,3.021717,3.421682,3.594667,-1309.5703
2,1,3.711511,4.252724,4.147901,4.345714,5.706183,3.662861,3.165161,3.546181,3.801529,-1308.5938
2,1,3.546212,4.052189,3.806375,4.280216,5.330654,3.597446,2.885444,3.371241,3.528218,-1307.6172
2,1,3.375192,3.864127,3.5809,4.253149,4.75651,3.603491,2.696062,3.239509,3.309373,-1306.6406
2,1,3.170598,3.665975,3.331447,3.996043,4.324047,3.409434,2.442696,2.971172,3.136711,-1305.6641
2,1,2.96885,3.434604,3.071045,3.673989,4.041596,3.17928,2.054937,2.793061,2.926618,-1304.6875
2,1,2.936385,3.400683,3.119216,3.703389,4.078824,3.258709,2.072851,2.886162,2.946363,-1303.7109
2,1,3.072087,3.593046,3.394774,3.761948,4.484106,3.367954,2.445765,3.028109,3.085942,-1302.7344
2,1,3.158751,3.726192,3.581592,3.81538,4.792515,3.409945,2.673636,3.109611,3.135876,-1301.7578
2,1,3.081575,3.682156,3.565695,3.831554,4.809013,3.33298,2.611922,3.081172,3.241884,-1300.7813
2,1,2.965087,3.650814,3.589298,3.733918,4.945991,3.239047,2.554577,2.949704,3.314354,-1299.8047
2,1,2.822995,3.520032,3.451698,3.629397,4.886434,3.163124,2.412971,2.863676,3.078679,-1298.8281
2,1,2.56694,3.232119,3.126401,3.498679,4.380187,3.048699,2.181818,2.648808,2.715433,-1297.8516
2,1,2.560201,3.247895,3.149917,3.542469,4.128995,3.115575,2.127651,2.735902,2.620668,-1296.875
2,1,2.618008,3.291073,3.20887,3.583699,4.018675,3.252063,2.036314,2.951712,2.759149,-1295.8984
2,1,2.872069,3.491784,3.326419,3.758926,4.009096,3.472536,2.231301,3.189136,2.938152,-1294.9219
2,1,2.779157,3.373636,3.236029,3.747186,3.676414,3.313132,2.161978,3.081075,2.808785,-1293.9453
2,1,2.401611,2.938416,2.921733,3.330877,2.953277,2.987103,1.680401,2.706932,2.440026,-1292.9688
2,1,2.195995,2.692895,2.734904,3.13159,2.611843,2.818985,1.448234,2.491936,2.211764,-1291.9922
2,1,2.172982,2.736848,2.787774,3.084938,2.8558,2.770763,1.417776,2.517615,2.268207,-1291.0156
2,1,2.183565,2.83192,2.79819,3.059965,3.143991,2.7703,1.532702,2.493351,2.464189,-1290.0391
2,1,2.380291,3.006801,2.87504,3.177418,3.489826,2.94647,1.84019,2.645364,2.643993,-1289.0625
2,1,2.421142,2.961247,2.876476,3.141293,3.549674,2.959642,1.860242,2.661867,2.55834,-1288.0859
2,1,2.288305,2.739241,2.737613,3.010702,3.358388,2.777046,1.642546,2.521789,2.353274,-1287.1094
2,1,2.379584,2.821016,2.811578,3.138521,3.662157,2.857843,1.763493,2.635993,2.436202,-1286.1328
2,1,2.52665,3.03717,2.992497,3.332713,3.980916,3.060589,1.971912,2.907887,2.648261,-1285.1563
2,1,2.4354,2.99023,2.969376,3.219281,3.886671,3.010615,1.936814,2.886621,2.722126,-1284.1797
2,1,2.461969,3.003788,2.936409,3.151555,3.78026,3.014161,1.959025,2.858104,2.759016,-1283.2031
2,1,2.698816,3.25074,3.092087,3.456976,3.884203,3.238756,2.101674,2.994454,2.84688,-1282.2266
2,1,2.755719,3.278136,3.06738,3.646964,3.737249,3.320872,2.053038,2.924434,2.68029,-1281.25
2,1,2.694627,3.215179,2.999609,3.726887,3.531732,3.30483,1.864689,2.793577,2.446972,-1280.2734
2,1,2.573188,3.139133,2.879237,3.580647,3.406646,3.203233,1.679883,2.605954,2.249824,-1279.2969
2,1,2.746226,3.282433,3.008299,3.665646,3.590643,3.185791,1.811521,2.64786,2.259625,-1278.3203
2,1,2.771309,3.291404,3.060607,3.692345,3.710553,3.138489,1.892109,2.656376,2.288492,-1277.3438
2,1,2.657685,3.171972,2.951496,3.448124,3.967345,3.020582,2.049285,2.565763,2.282539,-1276.3672
2,1,2.822571,3.307412,3.046838,3.461136,4.553526,3.15283,2.453769,2.643664,2.556531,-1275.3906
2,1,2.916015,3.392908,3.059562,3.603166,4.567144,3.157511,2.451367,2.656854,2.711251,-1274.4141
2,1,2.858472,3.306843,2.981842,3.452077,4.28464,2.978501,2.144111,2.505599,2.634609,-1273.4375
2,1,2.878806,3.275223,2.968853,3.365007,4.107634,2.919208,2.041743,2.490646,2.507664,-1272.4609
2,1,2.723011,3.158085,2.963524,3.340228,3.765858,2.885618,1.894881,2.441651,2.269671,-1271.4844
2,1,2.566729,3.035469,2.831633,3.358487,3.377106,2.756299,1.642887,2.375248,2.145422,-1270.5078
2,1,2.670311,3.180316,2.902715,3.537935,3.632126,2.754553,1.785317,2.498724,2.370248,-1269.5313
2,1,3.034883,3.624388,3.39336,3.971083,4.358031,3.153546,2.201892,2.918807,2.857313,-1268.5547
2,1,3.426048,3.989445,3.865518,4.386846,4.829981,3.611457,2.450631,3.406454,3.275934,-1267.5781
2,1,3.487041,4.004062,3.858718,4.329633,4.899762,3.666893,2.585619,3.483209,3.285714,-1266.6016
2,1,3.27009,3.82523,3.687713,4.018404,4.708125,3.475831,2.563679,3.329251,3.052849,-1265.625
2,1,3.129397,3.689531,3.546015,3.891172,4.541576,3.422239,2.466554,3.178168,2.980344,-1264.6484
2,1,3.0747,3.589519,3.351385,3.867856,4.477337,3.463639,2.383564,3.094757,2.9979,-1263.6719
2,1,2.999204,3.591002,3.365507,3.964034,4.364916,3.587598,2.318056,3.173888,2.964573,-1262.6953
2,1,3.072648,3.689224,3.501132,4.18064,4.658124,3.636197,2.388387,3.192531,3.061777,-1261.7188
2,1,3.300236,3.855876,3.582628,4.474106,5.018574,3.733228,2.466065,3.207704,3.138001,-1260.7422
2,1,3.309922,3.832411,3.502599,4.495359,4.873021,3.727133,2.391622,3.045663,3.1622,-1259.7656
2,1,3.331932,3.828867,3.500994,4.355255,4.805026,3.673519,2.462282,2.971566,3.148423,-1258.7891
2,1,3.107669,3.668916,3.36465,4.148845,4.631231,3.487571,2.437066,2.898387,2.983548,-1257.8125
2,1,2.938952,3.569981,3.291499,4.049284,4.470427,3.352004,2.387398,2.788417,3.031546,-1256.8359
2,1,2.895148,3.518724,3.267136,3.925957,4.514073,3.286355,2.422375,2.761908,3.144193,-1255.8594
2,1,2.961007,3.620951,3.359352,3.898604,4.716495,3.35892,2.51613,2.936005,3.211891,-1254.8828
2,1,3.084059,3.74952,3.525911,3.915526,4.959845,3.456947,2.627144,3.154134,3.292928,-1253.9063
2,1,3.199647,3.832456,3.639115,3.93574,5.259072,3.535072,2.812322,3.296225,3.492138,-1252.9297
2,1,3.277923,3.896057,3.647662,3.903347,5.350464,3.504941,2.851289,3.184188,3.574459,-1251.9531
2,1,3.499702,4.053727,3.8848,4.05368,5.300764,3.656259,2.901858,3.333982,3.718872,-1250.9766
2,1,3.772133,4.26222,4.120645,4.296211,5.315361,3.831564,3.012649,3.51791,3.979694,-1250.0
2,1,3.580499,4.033301,3.881289,4.078445,5.021852,3.638185,2.723587,3.357416,3.868313,-1249.0234
2,1,3.30648,3.767111,3.650133,3.726939,4.718505,3.428477,2.491538,3.23299,3.661327,-1248.0469
2,1,3.273112,3.766701,3.691431,3.650561,4.675654,3.543751,2.588663,3.282678,3.629299,-1247.0703
2,1,3.199728,3.75513,3.762799,3.601556,4.745574,3.583172,2.751869,3.338479,3.787013,-1246.0938
2,1,3.271338,3.837828,3.807091,3.774747,4.780243,3.647779,2.754295,3.374306,3.830285,-1245.1172
2,1,3.255011,3.812049,3.672386,3.827668,4.570535,3.470644,2.646819,3.148698,3.724603,-1244.1406
2,1,2.99388,3.580805,3.348366,3.573841,4.475296,3.076695,2.471128,2.728189,3.472806,-1243.1641
2,1,2.999558,3.600726,3.363976,3.456637,4.839214,3.000893,2.539521,2.752011,3.513516,-1242.1875
2,1,2.928058,3.584606,3.473638,3.347552,4.999188,2.989044,2.544196,2.822056,3.413505,-1241.2109
2,1,2.902492,3.566139,3.457015,3.308828,4.821832,3.043905,2.392966,2.897199,3.306365,-1240.2344
2,1,3.032559,3.635616,3.476126,3.417937,4.620479,3.214503,2.281877,3.03808,3.351764,-1239.2578
2,1,3.206716,3.853073,3.651574,3.535307,4.815925,3.303485,2.57483,3.105946,3.487818,-1238.2813
2,1,3.423171,4.10413,3.908583,3.86796,4.996246,3.517403,2.85676,3.208537,3.692561,-1237.3047
2,1,3.467922,4.083022,3.989404,4.063943,4.993124,3.657488,2.841923,3.359683,3.786663,-1236.3281
2,1,3.667897,4.199157,4.112651,4.141153,5.066659,3.801341,2.924711,3.54556,3.832707,-1235.3516
2,1,3.920055,4.382954,4.258959,4.328449,4.998487,4.050642,3.061949,3.738269,3.891079,-1234.375
2,1,4.091858,4.542254,4.458151,4.647867,4.928188,4.327284,3.155241,3.991601,4.011598,-1233.3984
2,1,4.173815,4.669364,4.563677,4.8165,4.877168,4.423203,3.223023,4.049354,4.05288,-1232.4219
2,1,4.089132,4.586408,4.44622,4.666729,4.82554,4.310868,3.15338,3.967157,3.952982,-1231.4453
2,1,4.193912,4.610736,4.43296,4.62122,5.222845,4.209522,3.236126,3.965948,3.932217,-1230.4688
2,1,4.196335,4.569076,4.387739,4.657545,5.552327,4.197051,3.255998,3.972585,4.019738,-1229.4922
2,1,3.929995,4.371745,4.180545,4.490908,5.387549,4.121322,3.117706,3.81046,3.809029,-1228.5156
2,1,3.730917,4.13707,3.92071,4.243459,5.070849,3.861497,2.89935,3.572103,3.395575,-1227.5391
2,1,3.735842,4.1341,3.963277,4.154092,5.026446,3.820875,2.961767,3.620145,3.489663,-1226.5625
2,1,3.760487,4.176692,3.995568,4.185716,5.09826,3.94484,3.061664,3.6844,3.634907,-1225.5859
2,1,3.725402,4.200776,4.041344,4.140782,5.014704,3.950019,3.021943,3.621179,3.548346,-1224.6094
2,1,3.623605,4.219085,4.045263,3.980784,4.950616,3.817892,2.986479,3.520634,3.535736,-1223.6328
2,1,3.574534,4.190874,3.950487,3.909673,4.85727,3.650203,2.898965,3.362705,3.570597,-1222.6563
2,1,3.645727,4.14791,3.877264,4.038955,4.748891,3.632534,2.897521,3.323795,3.623355,-1221.6797
2,1,3.550483,4.01964,3.77159,3.996634,4.414634,3.522977,2.866233,3.199891,3.56013,-1220.7031
2,1,3.326706,3.808915,3.626721,3.832836,3.838799,3.323211,2.677275,3.060413,3.390825,-1219.7266
2,1,3.378179,3.867554,3.721037,4.036619,3.828639,3.39872,2.790831,3.19135,3.438527,-1218.75
2,1,3.470577,4.011736,3.858167,4.268452,4.064053,3.611398,3.007675,3.343185,3.587589,-1217.7734
2,1,3.374536,3.989886,3.849506,4.305397,4.12891,3.733907,2.895624,3.380294,3.565816,-1216.7969
2,1,3.421621,4.032978,3.862464,4.405161,4.297131,3.772696,2.932856,3.387205,3.548573,-1215.8203
2,1,3.429896,4.026448,3.788614,4.299744,4.25186,3.712328,2.918887,3.253364,3.3642,-1214.8438
2,1,3.638631,4.206316,3.880387,4.472779,4.222271,3.936492,2.824242,3.374709,3.253575,-1213.8672
2,1,4.002423,4.471439,4.157787,4.768294,4.220341,4.22138,2.864474,3.602227,3.374491,-1212.8906
2,1,4.137655,4.530766,4.224787,4.868458,4.123164,4.208603,2.931407,3.619142,3.335957,-1211.9141
2,1,4.087969,4.426079,4.093122,4.750998,4.077524,4.081042,2.924372,3.480876,3.199839,-1210.9375
2,1,4.041622,4.370305,4.051524,4.405049,4.189833,3.914213,2.78603,3.354564,3.085342,-1209.9609
2,1,4.039251,4.421452,4.154758,4.261039,4.559209,3.853709,2.904464,3.366565,3.168281,-1208.9844
2,1,3.892735,4.31414,4.126864,4.130857,4.728019,3.805361,2.966901,3.300153,3.191584,-1208.0078
2,1,3.923798,4.352278,4.104871,4.145016,4.98,3.837216,3.038077,3.361404,3.280862,-1207.0313
2,1,3.916245,4.349212,4.059768,4.060792,5.306599,3.769585,3.105981,3.341586,3.29599,-1206.0547
2,1,3.750439,4.211434,3.905009,3.799674,5.477025,3.502863,3.119239,3.107247,3.239494,-1205.0781
2,1,3.741383,4.222142,3.907552,3.792363,5.513042,3.492964,3.245296,3.111029,3.306818,-1204.1016
2,1,3.656274,4.124089,3.811643,3.68667,5.236549,3.418594,3.185067,3.037479,3.209599,-1203.125
2,1,3.517914,4.025193,3.751918,3.587855,4.892331,3.426949,2.983086,3.055178,3.155386,-1202.1484
2,1,3.242498,3.765846,3.617683,3.369214,4.493996,3.308387,2.679434,3.05679,2.993932,-1201.1719
2,1,2.941868,3.484454,3.373955,3.152051,4.170181,3.193806,2.4016,2.959884,2.720963,-1200.1953
2,1,3.016959,3.634684,3.378665,3.316044,4.334871,3.265674,2.44899,3.058038,2.774824,-1199.2188
2,1,3.234896,3.771433,3.478514,3.452594,4.47513,3.277529,2.486658,3.066867,2.927577,-1198.2422
2,1,3.443817,3.86592,3.593206,3.478144,4.574924,3.278864,2.625085,3.027893,3.126531,-1197.2656
2,1,3.643396,4.061506,3.775921,3.574902,4.664087,3.326546,2.855082,3.067787,3.246758,-1196.2891
2,1,3.734489,4.20113,3.939433,3.637654,4.627153,3.488113,2.896091,3.115272,3.302776,-1195.3125
2,1,3.825283,4.331853,4.021271,3.831172,4.87194,3.671608,2.982679,3.248493,3.519864,-1194.3359
2,1,3.702607,4.156633,3.850357,3.801885,4.727884,3.611366,2.911744,3.19207,3.571205,-1193.3594
2,1,3.396804,3.86819,3.544484,3.532023,4.383928,3.327759,2.684072,2.932443,3.26486,-1192.3828
2,1,3.260424,3.725699,3.418782,3.345142,4.383584,3.14294,2.497832,2.674132,3.057322,-1191.4063
2,1,3.34754,3.776632,3.488269,3.376887,4.664301,3.209809,2.611087,2.703854,3.073954,-1190.4297
2,1,3.210867,3.56361,3.31518,3.270359,4.485495,3.121753,2.415994,2.6141,2.876209,-1189.4531
2,1,3.037892,3.390018,3.163744,3.207519,4.226724,3.030299,2.189939,2.484649,2.769239,-1188.4766
2,1,3.054194,3.377195,3.04563,3.118508,4.318416,2.919636,2.189686,2.396479,2.76796,-1187.5
2,1,2.986015,3.372634,3.040596,3.137444,4.491259,3.019321,2.269696,2.502102,2.796669,-1186.5234
2,1,3.010118,3.410771,3.191076,3.343176,4.581824,3.242742,2.377284,2.685735,2.908603,-1185.5469
2,1,3.229921,3.668883,3.504929,3.606391,4.795426,3.535277,2.563032,2.928092,3.017794,-1184.5703
2,1,3.541634,4.077157,3.986295,3.964651,5.275063,3.871126,2.976099,3.347162,3.351268,-1183.5938
2,1,3.621063,4.200616,4.107905,4.04012,5.388578,3.904381,3.163791,3.424933,3.462832,-1182.6172
2,1,3.697332,4.272199,4.106896,4.003713,5.295006,3.828013,3.301961,3.321772,3.410471,-1181.6406
2,1,3.711132,4.248818,4.090096,4.069219,5.20745,3.766049,3.281098,3.242167,3.282229,-1180.6641
2,1,3.611933,4.13487,3.957966,4.193141,4.780238,3.858231,3.072954,3.216875,3.170883,-1179.6875
2,1,3.457175,3.956228,3.754122,4.015533,4.361693,3.755975,2.744791,3.114041,3.030458,-1178.7109
2,1,3.315609,3.828867,3.682464,3.828376,4.19019,3.559123,2.555544,3.022893,2.870212,-1177.7344
2,1,3.271795,3.820121,3.728286,3.883892,4.1901,3.554121,2.467983,3.073782,2.808467,-1176.7578
2,1,3.172078,3.67254,3.567396,3.862003,4.076457,3.478826,2.249878,2.991389,2.653943,-1175.7813
2,1,3.055399,3.512501,3.366149,3.826458,4.139907,3.452487,2.148258,2.822536,2.598236,-1174.8047
2,1,3.212508,3.703118,3.476206,3.933449,4.275992,3.619081,2.162105,3.001134,2.666602,-1173.8281
2,1,3.444733,3.932179,3.650909,4.261079,4.289798,3.806505,2.179072,3.205297,2.649516,-1172.8516
2,1,3.417808,3.946095,3.647573,4.324547,3.990819,3.911632,2.098212,3.272425,2.502347,-1171.875
2,1,3.265959,3.939442,3.612841,4.216819,3.895414,3.837367,2.184263,3.247229,2.412622,-1170.8984
2,1,3.193883,3.950943,3.636154,4.142198,4.225443,3.732098,2.343394,3.230477,2.53169,-1169.9219
2,1,3.068866,3.780386,3.490605,3.867045,4.2277,3.633829,2.213786,3.119763,2.545715,-1168.9453
2,1,3.013989,3.623362,3.374912,3.711254,3.821812,3.537991,1.927318,3.075713,2.573383,-1167.9688
2,1,3.070281,3.639451,3.356095,3.669197,3.458412,3.475801,1.665745,3.011874,2.556828,-1166.9922
2,1,3.023599,3.573716,3.272691,3.533961,3.2719,3.468651,1.626437,2.953008,2.455482,-1166.0156
2,1,2.982354,3.507652,3.212284,3.522878,3.506918,3.577538,1.847,2.938554,2.452763,-1165.0391
2,1,2.986334,3.537493,3.189591,3.554327,3.719229,3.654356,1.944036,2.951141,2.467493,-1164.0625
2,1,3.01198,3.606259,3.244801,3.72326,3.40536,3.737572,1.885593,3.072989,2.541245,-1163.0859
2,1,3.053219,3.679862,3.349564,3.790522,3.293848,3.778667,1.960993,3.14524,2.743526,-1162.1094
2,1,3.052988,3.702875,3.390436,3.700674,3.341584,3.780769,1.979982,3.145039,2.892789,-1161.1328
2,1,3.085932,3.658077,3.457227,3.569194,3.479284,3.730922,2.147648,3.107764,3.006096,-1160.1563
2,1,3.205292,3.731737,3.584411,3.384377,3.755173,3.720473,2.396717,3.160935,3.016761,-1159.1797
2,1,3.117889,3.680937,3.471764,3.292231,3.792044,3.607282,2.29649,3.101321,2.779847,-1158.2031
2,1,3.1379,3.735705,3.488778,3.282606,3.754061,3.578157,2.217987,3.051607,2.766846,-1157.2266
2,1,3.312804,3.889835,3.600465,3.414907,3.936371,3.729469,2.240956,3.177407,2.894622,-1156.25
2,1,3.298117,3.829992,3.535551,3.574605,3.89059,3.702242,2.21987,3.137031,2.797934,-1155.2734
2,1,3.30981,3.823293,3.466655,3.593692,3.961536,3.661636,2.222307,3.064616,2.664717,-1154.2969
2,1,3.26197,3.749023,3.358585,3.603539,3.937188,3.593719,2.078959,2.933258,2.48555,-1153.3203
2,1,3.347889,3.84258,3.456288,3.790522,3.912545,3.702376,2.027173,3.003497,2.545599,-1152.3438
2,1,3.300335,3.813075,3.427665,3.826229,3.826626,3.737996,1.994273,3.030097,2.62768,-1151.3672
2,1,3.106514,3.61735,3.316377,3.817457,3.609484,3.66999,1.904073,3.045823,2.642133,-1150.3906
2,1,3.138224,3.772928,3.509934,3.922784,3.678352,3.790203,2.086678,3.277432,2.821209,-1149.4141
2,1,3.243136,3.947507,3.668441,3.988859,3.899162,3.920634,2.315485,3.457717,2.916147,-1148.4375
2,1,3.161734,3.930078,3.692486,3.85049,3.904034,3.921696,2.397691,3.536994,2.859009,-1147.4609
2,1,2.986875,3.797928,3.548685,3.737878,3.713612,3.824551,2.292144,3.360694,2.714626,-1146.4844
2,1,3.055357,3.811471,3.490329,3.931063,3.798656,3.870318,2.291722,3.395856,2.81512,-1145.5078
2,1,3.249141,3.939224,3.590416,3.952382,3.871583,3.869599,2.41616,3.402938,3.060969,-1144.5313
2,1,3.427591,4.129799,3.752836,3.974391,3.843208,4.007963,2.508934,3.472996,3.157687,-1143.5547
2,1,3.481382,4.193846,3.814749,3.958391,3.791443,4.051195,2.57439,3.457034,3.196636,-1142.5781
2,1,3.410539,4.068207,3.754873,3.963028,3.907839,3.955115,2.578558,3.355697,3.257601,-1141.6016
2,1,3.43601,4.095591,3.776877,4.06625,4.160006,3.97004,2.599845,3.443811,3.345741,-1140.625
2,1,3.52281,4.148892,3.824413,4.082327,4.331211,4.006105,2.604375,3.51938,3.446645,-1139.6484
2,1,3.357868,3.943507,3.65293,3.864834,4.119648,3.83506,2.406737,3.395048,3.347006,-1138.6719
2,1,3.24736,3.85891,3.579832,3.858402,4.076046,3.733339,2.397379,3.244349,3.248095,-1137.6953
2,1,3.183424,3.835613,3.537108,3.786875,4.019004,3.655264,2.394825,3.169113,3.096932,-1136.7188
2,1,3.078449,3.730851,3.419881,3.438362,3.738809,3.532109,2.274628,3.123745,2.772303,-1135.7422
2,1,3.027566,3.704334,3.344449,3.263758,3.52468,3.508124,2.183905,3.161883,2.662079,-1134.7656
2,1,3.009718,3.731984,3.444592,3.259329,3.520099,3.621025,2.140177,3.246137,2.728018,-1133.7891
2,1,2.618394,3.308857,3.0717,3.027078,3.232976,3.193045,1.820901,2.923303,2.406353,-1132.8125
2,1,2.304459,3.012655,2.688351,2.933868,3.010573,2.945163,1.516336,2.696492,2.044957,-1131.8359
2,1,2.206157,2.929257,2.501597,3.080347,3.081461,2.939969,1.385904,2.607333,1.878851,-1130.8594
2,1,2.249039,2.964731,2.604101,3.265709,3.386471,3.087955,1.527606,2.698658,1.969416,-1129.8828
2,1,2.363019,3.044485,2.718208,3.312573,3.670672,3.05931,1.709773,2.669678,2.098785,-1128.9063
2,1,2.600865,3.293773,2.996152,3.279438,4.186449,3.193996,2.036956,2.749616,2.448126,-1127.9297
2,1,2.872562,3.547334,3.269828,3.326694,4.647794,3.356137,2.301244,2.898109,2.764436,-1126.9531
2,1,2.856995,3.597864,3.297762,3.301529,4.779081,3.337566,2.27582,2.8779,2.782183,-1125.9766
2,1,2.735686,3.490261,3.265536,3.235722,4.612379,3.281097,2.139488,2.923976,2.728245,-1125.0
2,1,2.717279,3.402958,3.187425,3.170201,4.320057,3.267558,1.994787,2.878627,2.726341,-1124.0234
2,1,2.651413,3.268088,3.02838,2.980898,3.836837,3.171399,1.770821,2.769447,2.655934,-1123.0469
2,1,2.619802,3.229478,3.003475,2.847393,3.452793,3.160719,1.766976,2.764611,2.561487,-1122.0703
2,1,2.681191,3.238671,3.023297,2.982006,3.494793,3.117914,1.817785,2.693594,2.510874,-1121.0938
2,1,3.053056,3.521202,3.253735,3.317203,3.693116,3.34668,2.004716,2.90625,2.678888,-1120.1172
2,1,3.5474,3.90376,3.584224,3.621611,4.040929,3.671309,2.282844,3.134658,3.001774,-1119.1406
2,1,3.72474,3.991697,3.689393,3.751228,4.216562,3.690238,2.453749,3.169379,3.030171,-1118.1641
2,1,3.59347,3.897563,3.610841,3.652786,4.181165,3.585734,2.402314,3.089499,2.762808,-1117.1875
2,1,3.422173,3.813441,3.553364,3.555485,4.303413,3.437431,2.353869,3.019188,2.64981,-1116.2109
2,1,3.241267,3.686092,3.445945,3.556807,4.321576,3.411539,2.320145,3.004552,2.712168,-1115.2344
2,1,3.137686,3.584913,3.271532,3.42546,4.168495,3.290071,2.128044,2.824467,2.632371,-1114.2578
2,1,2.91883,3.388276,2.975287,3.104071,3.819074,2.972129,1.83015,2.513343,2.283972,-1113.2813
2,1,2.713131,3.26463,2.826066,2.763247,3.493618,2.707219,1.622552,2.251625,2.032416,-1112.3047
2,1,2.830317,3.407979,3.034827,2.71507,3.761823,2.807396,1.823754,2.392842,2.322948,-1111.3281
2,1,3.035692,3.642264,3.316386,2.929245,4.072483,3.133867,2.137406,2.73132,2.822525,-1110.3516
2,1,3.242601,3.830494,3.542433,3.175002,4.034657,3.333706,2.33584,2.96386,2.943712,-1109.375
2,1,3.119355,3.685518,3.418903,3.160451,3.915865,3.135868,2.150795,2.876266,2.614178,-1108.3984
2,1,2.943984,3.453235,3.243593,2.996174,3.979884,2.985931,1.999792,2.795505,2.564231,-1107.4219
2,1,3.036786,3.45857,3.19155,3.031402,3.979857,3.072995,1.975829,2.89513,2.650879,-1106.4453
2,1,3.080019,3.448609,3.091134,3.034625,3.867383,2.98083,1.943935,2.817244,2.642311,-1105.4688
2,1,3.100448,3.471206,3.111539,2.988025,3.861671,2.889255,1.994451,2.687502,2.649797,-1104.4922
2,1,3.058078,3.426602,3.12548,3.019831,3.823076,2.851259,2.046942,2.610789,2.587748,-1103.5156
2,1,2.888848,3.332807,3.020154,3.093882,3.651253,2.828988,1.926889,2.463306,2.466554,-1102.5391
2,1,2.928323,3.407572,3.024123,3.318326,3.706074,3.018508,1.890315,2.643015,2.462475,-1101.5625
2,1,3.101667,3.585922,3.202515,3.44569,3.955591,3.217946,2.064038,2.863244,2.583828,-1100.5859
2,1,3.030516,3.54589,3.190258,3.258071,4.000916,3.111271,2.044236,2.70737,2.397762,-1099.6094
2,1,2.84913,3.31971,2.97925,3.181719,3.647053,2.925785,1.842118,2.564526,2.204196,-1098.6328
2,1,2.681178,3.157242,2.763576,3.146453,3.401354,2.854677,1.632019,2.472475,1.947676,-1097.6563
2,1,2.497109,3.030641,2.62254,3.052496,3.289853,2.750122,1.372182,2.38811,1.692613,-1096.6797
2,1,2.468475,3.07309,2.641379,3.024095,3.219732,2.749958,1.381397,2.376437,1.729615,-1095.7031
2,1,2.609674,3.173017,2.74567,3.027979,3.316645,2.735087,1.447132,2.383997,1.765527,-1094.7266
2,1,2.728245,3.267711,2.877963,3.078981,3.52512,2.77456,1.471127,2.469153,1.774374,-1093.75
2,1,2.657781,3.126647,2.715113,2.876742,3.505473,2.584903,1.478774,2.273834,1.707893,-1092.7734
2,1,2.674282,3.079404,2.64282,2.726741,3.519523,2.45332,1.556123,2.138028,1.737798,-1091.7969
2,1,2.739831,3.135298,2.662063,2.694718,3.515024,2.423836,1.536067,2.086023,1.740248,-1090.8203
2,1,2.493595,2.90314,2.545656,2.460778,3.34333,2.228292,1.35917,1.86217,1.587701,-1089.8438
2,1,2.250515,2.703475,2.416122,2.353256,3.156123,2.176087,1.257913,1.819287,1.587671,-1088.8672
2,1,2.220377,2.734538,2.431546,2.452247,3.206625,2.259977,1.324538,1.987596,1.6995,-1087.8906
2,1,2.253477,2.814033,2.508204,2.641293,3.345842,2.399001,1.401503,2.110688,1.734376,-1086.9141
2,1,2.469738,2.969684,2.62426,2.793654,3.649956,2.525236,1.584903,2.148615,1.858526,-1085.9375
2,1,2.736799,3.150724,2.791947,2.867218,3.990846,2.61021,1.757456,2.244231,1.864909,-1084.9609
2,1,2.684056,3.043157,2.681286,2.789831,3.802829,2.562632,1.555226,2.210289,1.538377,-1083.9844
2,1,2.503822,2.832265,2.529611,2.541144,3.453285,2.510416,1.358123,2.156695,1.348565,-1083.0078
2,1,2.388548,2.711675,2.388173,2.439444,3.362938,2.448073,1.279647,2.119696,1.431817,-1082.0313
2,1,2.343879,2.600177,2.282686,2.498006,3.145397,2.438153,1.26337,2.174232,1.442445,-1081.0547
2,1,2.140752,2.36209,2.032565,2.397696,2.685358,2.305191,1.00094,1.973352,1.198445,-1080.0781
2,1,2.092686,2.313383,1.90582,2.27473,2.569668,2.054442,0.799278,1.652856,1.125311,-1079.1016
2,1,2.313858,2.592253,2.162167,2.410626,2.903473,2.176732,1.009539,1.810874,1.383526,-1078.125
2,1,2.365286,2.697548,2.363933,2.53202,2.921505,2.408497,1.1923,2.08814,1.510509,-1077.1484
2,1,2.128419,2.454081,2.137439,2.43026,2.610638,2.240154,1.001291,2.001015,1.438767,-1076.1719
2,1,1.948687,2.298409,1.867601,2.273426,2.288571,2.102783,0.74831,1.825543,1.22317,-1075.1953
2,1,2.008097,2.320144,1.815565,2.295361,2.208664,2.071606,0.75203,1.75188,1.170692,-1074.2188
2,1,1.990749,2.32714,1.830445,2.14999,2.365002,1.923026,0.90656,1.586843,1.312722,-1073.2422
2,1,1.984811,2.320806,1.830525,1.896604,2.722779,1.808475,1.113953,1.524735,1.386359,-1072.2656
2,1,2.065219,2.390064,1.900836,1.79581,3.03441,1.781377,1.150067,1.608879,1.37065,-1071.2891
2,1,2.262243,2.555072,2.032766,1.855659,3.215806,1.921993,1.284026,1.780456,1.429146,-1070.3125
2,1,2.487023,2.815151,2.316898,2.270049,3.528532,2.280511,1.565974,2.150271,1.638006,-1069.3359
2,1,2.343331,2.785433,2.331861,2.404039,3.579868,2.372363,1.53946,2.243074,1.651191,-1068.3594
2,1,2.359688,2.799542,2.32461,2.43143,3.367212,2.424589,1.490607,2.202569,1.688663,-1067.3828
2,1,2.553702,2.921309,2.401489,2.575789,3.319941,2.590544,1.517686,2.198327,1.896599,-1066.4063
2,1,2.641741,2.954157,2.382214,2.713077,3.20355,2.657255,1.516297,2.309408,2.053744,-1065.4297
2,1,2.689344,3.029163,2.46545,2.925402,3.061183,2.732614,1.413077,2.471751,2.117258,-1064.4531
2,1,2.74755,3.034194,2.446114,3.03902,3.095282,2.669327,1.294871,2.415498,2.059892,-1063.4766
2,1,2.482379,2.68258,2.024636,2.687601,2.800757,2.278205,0.927882,2.057744,1.720868,-1062.5
2,1,2.397549,2.610184,1.87702,2.560104,2.58376,2.165207,0.81331,1.9409,1.598164,-1061.5234
2,1,2.488734,2.720348,1.990679,2.561176,2.801698,2.302686,1.142609,2.047117,1.899422,-1060.5469
2,1,2.330322,2.647903,2.059366,2.414074,2.925207,2.171546,1.297614,1.92234,1.932,-1059.5703
2,1,2.246362,2.658135,2.152294,2.27437,2.950705,2.042735,1.214819,1.893779,1.857954,-1058.5938
2,1,2.135467,2.545039,2.052051,2.078016,3.031812,1.941401,1.029865,1.775946,1.750346,-1057.6172
2,1,1.958012,2.363087,1.90255,1.988119,2.909285,1.980525,0.985645,1.792259,1.642181,-1056.6406
2,1,1.869481,2.303297,1.864041,1.920247,2.769326,2.076742,1.04349,1.884974,1.577863,-1055.6641
2,1,1.854729,2.278429,1.877076,1.922609,2.836288,2.043848,1.075838,1.890836,1.500981,-1054.6875
2,1,1.674247,2.181525,1.779348,1.882791,2.596023,2.008499,0.873427,1.878737,1.266643,-1053.7109
2,1,1.649656,2.237111,1.85766,1.942429,2.474144,2.059452,0.894839,1.819106,1.363379,-1052.7344
2,1,1.779414,2.388299,2.029616,2.112451,2.72356,2.169023,1.09129,1.881859,1.590182,-1051.7578
2,1,1.929841,2.547556,2.167332,2.238447,3.111812,2.268285,1.300236,1.961484,1.803891,-1050.7813
2,1,1.791928,2.409306,2.054755,2.019609,3.01972,2.102279,1.254691,1.83173,1.753071,-1049.8047
2,1,1.510525,2.122686,1.723886,1.727082,2.651111,1.751875,1.018077,1.51803,1.458219,-1048.8281
2,1,1.477049,2.088165,1.613883,1.737007,2.501527,1.622338,0.880299,1.414965,1.290313,-1047.8516
2,1,1.488814,2.077627,1.614027,1.766457,2.529254,1.650658,0.755341,1.487123,1.107086,-1046.875
2,1,1.428194,1.999909,1.557515,1.763134,2.608563,1.581641,0.827291,1.408732,1.118984,-1045.8984
2,1,1.354675,1.924522,1.501023,1.843287,2.568342,1.537704,0.878867,1.354397,1.192351,-1044.9219
2,1,1.408381,1.914218,1.500459,1.849416,2.389844,1.621923,0.896907,1.495967,1.266552,-1043.9453
2,1,1.519622,1.976557,1.587532,1.788369,2.499601,1.712293,1.007196,1.615183,1.335967,-1042.9688
2,1,1.595781,2.024184,1.644043,1.731027,2.659874,1.734523,1.02483,1.732885,1.321067,-1041.9922
2,1,1.686455,2.114592,1.700484,1.715388,2.598352,1.744043,1.01765,1.721015,1.363493,-1041.0156
2,1,1.802031,2.229399,1.74504,1.742861,2.712628,1.735735,1.118551,1.669441,1.536119,-1040.0391
2,1,2.045822,2.444141,1.952216,1.99573,2.987608,1.853171,1.229902,1.720884,1.677801,-1039.0625
2,1,2.310155,2.710528,2.113399,2.288365,3.216796,2.090625,1.360867,1.864663,1.700867,-1038.0859
2,1,2.410431,2.893153,2.233481,2.413319,3.361192,2.24942,1.51419,2.003823,1.940168,-1037.1094
2,1,2.489711,3.010458,2.409663,2.607798,3.392701,2.427977,1.663287,2.185764,2.083561,-1036.1328
2,1,2.537476,3.023463,2.566631,2.864512,3.249909,2.666518,1.697729,2.421097,2.067658,-1035.1563
2,1,2.4163,2.887875,2.498056,2.782801,3.07138,2.670567,1.51552,2.423188,1.953987,-1034.1797
2,1,2.37381,2.8695,2.389379,2.756219,3.199353,2.597324,1.497314,2.348421,2.002192,-1033.2031
2,1,2.492153,3.00034,2.439629,2.823545,3.374766,2.614716,1.534964,2.369155,2.026368,-1032.2266
2,1,2.655811,3.157978,2.602015,3.113754,3.349141,2.813061,1.521416,2.603317,1.97953,-1031.25
2,1,2.770434,3.195631,2.64389,3.355145,3.367735,2.940142,1.587383,2.731416,1.998869,-1030.2734
2,1,2.956525,3.399838,2.910258,3.485834,3.559205,3.132376,1.880725,2.951094,2.212995,-1029.2969
2,1,3.067136,3.527812,3.154802,3.457307,3.636185,3.214418,2.06752,3.038141,2.42462,-1028.3203
2,1,2.999319,3.509817,3.185481,3.440642,3.614461,3.240227,1.936305,2.993355,2.400351,-1027.3438
2,1,2.844999,3.419069,3.067468,3.299126,3.494214,3.098154,1.74909,2.733562,2.188377,-1026.3672
2,1,2.787833,3.405189,3.013798,3.144068,3.42828,3.080803,1.644231,2.748411,2.227475,-1025.3906
2,1,2.735505,3.35561,3.009294,3.114327,3.406297,3.127692,1.596921,2.894793,2.171423,-1024.4141
2,1,2.535848,3.214023,2.854595,2.892151,3.185388,3.050567,1.507228,2.761567,2.082314,-1023.4375
2,1,2.463294,3.208722,2.778879,2.65973,3.065319,2.949249,1.56522,2.73931,2.124953,-1022.4609
2,1,2.29612,3.009862,2.636798,2.394128,3.185809,2.800964,1.590752,2.664473,2.07316,-1021.4844
2,1,2.234555,2.881907,2.527939,2.381648,3.350764,2.756734,1.474355,2.571796,2.078885,-1020.5078
2,1,2.211095,2.760473,2.326451,2.334722,3.168425,2.586575,1.391757,2.401493,1.981637,-1019.5313
2,1,2.09918,2.601444,2.115889,2.107704,2.770772,2.376698,1.209122,2.27054,1.804295,-1018.5547
2,1,1.994103,2.455267,2.023708,2.073941,2.63402,2.308919,1.053121,2.163587,1.782113,-1017.5781
2,1,2.046273,2.393458,2.05029,2.109396,2.515338,2.283263,1.051046,2.084598,1.797841,-1016.6016
2,1,2.202063,2.499199,2.186993,2.258586,2.554041,2.401822,1.093228,2.203535,2.004841,-1015.625
2,1,2.446918,2.825729,2.440833,2.669366,2.835781,2.82337,1.269581,2.684806,2.345916,-1014.6484
2,1,2.487677,2.908477,2.456111,2.673435,2.921757,2.889975,1.405789,2.850301,2.529274,-1013.6719
2,1,2.331331,2.710838,2.327896,2.44716,2.968324,2.664181,1.420155,2.580955,2.512078,-1012.6953
2,1,2.4584,2.832976,2.539204,2.569782,3.254093,2.772523,1.634156,2.617902,2.550571,-1011.7188
2,1,2.452737,2.805274,2.551544,2.541857,3.175995,2.75385,1.678591,2.64479,2.372005,-1010.7422
2,1,2.204074,2.55801,2.263945,2.294761,2.941269,2.459241,1.54404,2.326858,2.055949,-1009.7656
2,1,1.948784,2.340905,2.060092,2.009752,2.700892,2.18003,1.39459,1.995546,1.766872,-1008.7891
2,1,1.801521,2.213365,1.913727,1.816876,2.332624,2.082747,1.263722,1.804202,1.485195,-1007.8125
2,1,1.598489,2.007166,1.737498,1.562237,1.902263,1.93393,1.00712,1.6107,1.214563,-1006.8359
2,1,1.665347,2.037919,1.71955,1.519275,1.834324,1.847558,1.00224,1.541064,1.204116,-1005.8594
2,1,1.79372,2.132685,1.674362,1.615994,1.711938,1.848402,0.933141,1.541576,1.285487,-1004.8828
2,1,1.799748,2.141106,1.740878,1.711289,1.729569,1.909923,0.931749,1.669863,1.328156,-1003.9063
2,1,1.938279,2.324722,2.015833,1.973757,2.085005,2.082939,1.171395,1.906303,1.348323,-1002.9297
2,1,2.197927,2.666775,2.367911,2.205274,2.52306,2.371087,1.483634,2.167802,1.652007,-1001.9531
2,1,2.321579,2.805741,2.510957,2.446134,2.833157,2.49976,1.599907,2.381291,1.903852,-1000.9766
2,1,2.554892,3.060706,2.702777,2.860736,3.177588,2.768481,1.785133,2.646778,2.111573,-1000.0
2,1,2.609905,3.112253,2.727602,2.955269,3.041051,2.9033,1.771902,2.683758,2.121742,-999.0234
2,1,2.570737,3.059079,2.585875,2.899523,2.831342,2.848605,1.652669,2.557929,1.947861,-998.0469
2,1,2.625446,3.128821,2.55599,2.95583,2.804977,2.901027,1.652787,2.604931,1.847677,-997.0703
2,1,2.608303,3.124037,2.624493,2.997035,2.865156,2.940359,1.627435,2.660681,1.995859,-996.0938
2,1,2.655594,3.077574,2.607822,2.930277,2.891033,2.754916,1.711747,2.426387,2.161757,-995.1172
2,1,2.817951,3.156282,2.597789,3.033064,2.92276,2.716053,1.752593,2.376848,2.212388,-994.1406
2,1,2.758917,3.127747,2.519673,3.135146,2.897677,2.756711,1.607645,2.475902,2.163103,-993.1641
2,1,2.592537,2.934818,2.355392,2.962268,2.673105,2.691043,1.44859,2.449121,2.071156,-992.1875
2,1,2.604122,2.902292,2.349495,2.913699,2.551571,2.749948,1.509954,2.504788,2.186467,-991.2109
2,1,2.544225,2.890602,2.380104,2.791209,2.543131,2.640539,1.652928,2.420978,2.306871,-990.2344
2,1,2.467702,2.845054,2.412703,2.785109,2.62723,2.598579,1.771819,2.37541,2.388649,-989.2578
2,1,2.576175,2.955243,2.518389,2.897994,2.708379,2.714743,1.919802,2.386937,2.42848,-988.2813
2,1,2.665389,2.996054,2.541093,2.850741,2.729333,2.681722,1.904368,2.402742,2.259487,-987.3047
2,1,2.527949,2.890877,2.441244,2.699754,2.684284,2.653969,1.792729,2.467653,2.056333,-986.3281
2,1,2.528058,2.956969,2.44783,2.819713,2.794484,2.920856,1.781339,2.705785,2.099988,-985.3516
2,1,2.610469,2.933987,2.435881,2.830167,2.942526,2.870538,1.859938,2.698779,2.219493,-984.375
2,1,2.49743,2.760853,2.295782,2.644685,2.865917,2.59918,1.800492,2.488567,2.277023,-983.3984
2,1,2.328401,2.620716,2.171633,2.606,2.560907,2.459346,1.602216,2.346696,2.068878,-982.4219
2,1,2.253237,2.571687,2.200118,2.672142,2.362746,2.494932,1.5192,2.490873,1.871548,-981.4453
2,1,2.385062,2.726088,2.375608,2.942593,2.486026,2.787578,1.493869,2.732093,1.9558,-980.4688
2,1,2.35398,2.727232,2.364282,2.992481,2.430296,2.78595,1.298405,2.646783,1.772855,-979.4922
2,1,2.398388,2.751462,2.351291,2.958366,2.478587,2.725949,1.316674,2.641112,1.790225,-978.5156
2,1,2.537011,2.790949,2.363526,2.869542,2.655912,2.589304,1.461441,2.596593,1.971068,-977.5391
2,1,2.573668,2.8108,2.374503,2.836514,2.852649,2.466664,1.517223,2.482991,2.055226,-976.5625
2,1,2.423066,2.718463,2.302429,2.671302,2.716942,2.372417,1.433699,2.356453,2.005515,-975.5859
2,1,2.276309,2.560083,2.188973,2.539183,2.212611,2.272245,1.25203,2.328353,2.001388,-974.6094
2,1,2.306568,2.560097,2.250767,2.650326,1.912189,2.452804,1.202634,2.448352,1.985276,-973.6328
2,1,2.251293,2.521867,2.224286,2.529282,1.927822,2.516791,1.203089,2.482171,1.859711,-972.6563
2,1,2.309131,2.56571,2.251878,2.403402,2.113758,2.473545,1.384932,2.441214,1.88671,-971.6797
2,1,2.289131,2.54723,2.244631,2.449925,2.098566,2.482907,1.453849,2.47067,2.026393,-970.7031
2,1,2.241,2.504844,2.211352,2.404769,2.275871,2.462835,1.468742,2.457401,2.072771,-969.7266
2,1,2.355751,2.586282,2.208191,2.36374,2.464587,2.430907,1.528985,2.420361,2.063644,-968.75
2,1,2.49422,2.747804,2.286732,2.405179,2.548713,2.477992,1.650699,2.467799,2.073183,-967.7734
2,1,2.663376,3.03843,2.508205,2.697487,2.630418,2.765893,1.917526,2.71568,2.243491,-966.7969
2,1,2.757366,3.149068,2.569973,2.745182,2.495648,2.841344,2.003323,2.721585,2.292235,-965.8203
2,1,2.579511,2.975357,2.417163,2.528509,2.067378,2.612923,1.732765,2.482115,1.999709,-964.8438
2,1,2.296637,2.662328,2.119391,2.206248,1.739141,2.285851,1.408326,2.29177,1.780346,-963.8672
2,1,2.06981,2.401625,1.860878,1.945224,1.628078,2.035956,1.246182,2.139579,1.80987,-962.8906
2,1,1.877083,2.177747,1.690324,1.702036,1.370785,1.921309,1.028977,2.039785,1.746661,-961.9141
2,1,1.781985,2.049698,1.652463,1.505279,1.312451,1.82477,0.90216,2.031597,1.636767,-960.9375
2,1,1.851656,2.202732,1.777407,1.75122,1.598365,1.915989,0.998358,2.147201,1.675384,-959.9609
2,1,1.97271,2.387918,1.981149,2.023608,1.896295,2.067346,1.139977,2.266905,1.67168,-958.9844
2,1,2.086513,2.475209,2.044604,2.046541,2.095061,1.991099,1.186108,2.137916,1.608052,-958.0078
2,1,2.231491,2.637441,2.137467,2.142654,2.261636,2.008522,1.295411,2.084693,1.655559,-957.0313
2,1,2.324553,2.747275,2.304492,2.322931,2.275343,2.135734,1.366153,2.174065,1.720681,-956.0547
2,1,2.121433,2.57176,2.201688,2.29068,2.214433,2.06458,1.302761,2.057179,1.526363,-955.0781
2,1,1.879316,2.35515,1.949393,2.09575,2.093592,1.835235,1.177236,1.828187,1.268754,-954.1016
2,1,1.884964,2.355982,1.909606,2.065925,2.063664,1.725773,1.160202,1.734543,1.344888,-953.125
2,1,2.106036,2.583271,2.152936,2.178314,2.171669,1.858241,1.408404,1.978509,1.597242,-952.1484
2,1,2.118331,2.585669,2.154395,2.244447,2.152856,1.941006,1.498653,2.10467,1.629595,-951.1719
2,1,2.221423,2.576678,2.118325,2.379275,2.24366,2.061874,1.47332,2.184565,1.64541,-950.1953
2,1,2.104846,2.440004,1.937519,2.367323,2.104606,2.052619,1.273006,2.09561,1.443411,-949.2188
2,1,1.959791,2.360254,1.798353,2.324906,1.908196,1.951605,1.142894,1.981576,1.326814,-948.2422
2,1,2.043414,2.430446,1.810406,2.315894,2.023498,1.945235,1.187114,1.897808,1.4436,-947.2656
2,1,2.168588,2.536114,1.928664,2.397072,2.17901,2.116312,1.355961,2.05155,1.656873,-946.2891
2,1,2.15198,2.576735,1.979667,2.539944,2.030047,2.231901,1.357323,2.225496,1.66324,-945.3125
2,1,2.087837,2.614981,2.005558,2.707046,2.025409,2.259559,1.369016,2.266557,1.567913,-944.3359
2,1,2.100296,2.640143,1.956519,2.711915,2.234727,2.145071,1.411619,2.073514,1.568613,-943.3594
2,1,2.095966,2.629819,1.903881,2.677353,2.370712,2.058656,1.393937,1.929945,1.484103,-942.3828
2,1,2.095222,2.626875,1.871857,2.735858,2.26105,2.057966,1.199448,1.917129,1.278756,-941.4063
2,1,2.026251,2.530059,1.822805,2.74421,2.164807,2.011556,1.122424,1.918605,1.084206,-940.4297
2,1,1.922625,2.396063,1.710174,2.581091,2.015076,1.931398,1.022945,1.839645,1.028968,-939.4531
2,1,1.825165,2.286038,1.538116,2.349062,1.873191,1.883947,0.900007,1.760604,1.048926,-938.4766
2,1,1.839931,2.327987,1.532108,2.455699,1.901033,1.969476,0.958559,1.756197,1.054963,-937.5
2,1,1.928511,2.410243,1.594216,2.564316,1.96478,2.038471,1.08589,1.782575,1.050666,-936.5234
2,1,1.968051,2.426777,1.61078,2.497772,2.061499,2.056613,1.105373,1.805573,1.059214,-935.5469
2,1,2.265662,2.651743,1.772853,2.698131,2.498537,2.212379,1.387522,1.990537,1.383816,-934.5703
2,1,2.155585,2.481641,1.67427,2.604858,2.289876,2.138867,1.292158,1.951865,1.361083,-933.5938
2,1,1.895774,2.253052,1.503007,2.365578,1.656166,1.943864,0.933687,1.750011,0.954036,-932.6172
2,1,1.88759,2.230411,1.408089,2.220431,1.356501,1.851556,0.87324,1.643004,0.85112,-931.6406
2,1,1.830139,2.065431,1.270074,1.944462,1.145007,1.643505,0.842295,1.496973,0.788095,-930.6641
2,1,1.731002,1.934554,1.146518,1.758903,1.095337,1.401725,0.815622,1.207086,0.859626,-929.6875
2,1,1.616007,1.903762,1.18235,1.752597,1.21098,1.440357,0.804601,1.266042,0.991892,-928.7109
2,1,1.684762,2.070762,1.377339,1.944969,1.350248,1.688294,0.900212,1.614022,1.148433,-927.7344
2,1,1.708672,2.134399,1.435739,1.972292,1.575101,1.765761,0.937231,1.716305,1.179502,-926.7578
2,1,1.741985,2.173919,1.494471,1.885288,1.741003,1.689753,0.964263,1.707279,1.177151,-925.7813
2,1,1.824068,2.270202,1.639367,1.812426,1.733928,1.646523,1.114519,1.674173,1.344507,-924.8047
2,1,1.9819,2.367018,1.715178,1.688581,1.946705,1.574591,1.305605,1.559662,1.534733,-923.8281
2,1,2.330543,2.67086,2.002981,1.90087,2.363427,1.847678,1.66893,1.847114,1.882147,-922.8516
2,1,2.430388,2.735127,2.041364,2.117868,2.425742,1.915421,1.673088,1.930211,1.936311,-921.875
2,1,2.438772,2.701734,1.995436,2.161624,2.30769,1.788741,1.620042,1.862979,1.864617,-920.8984
2,1,2.51149,2.772551,2.079189,2.303584,2.216856,1.953101,1.676896,1.969402,1.806542,-919.9219
2,1,2.535825,2.813507,2.16085,2.374954,2.073803,2.089446,1.719375,1.985195,1.690739,-918.9453
2,1,2.5072,2.833693,2.18342,2.444291,2.021533,2.152822,1.730374,1.999626,1.670359,-917.9688
2,1,2.457062,2.754814,1.96624,2.357982,2.016369,2.092178,1.686985,1.893798,1.546821,-916.9922
2,1,2.387041,2.654669,1.830956,2.21996,1.964305,2.028209,1.570058,1.857489,1.429648,-916.0156
2,1,2.385936,2.702997,1.881771,2.311433,1.807129,2.022327,1.629203,1.928031,1.636018,-915.0391
2,1,2.551319,2.899156,2.133404,2.670349,1.866551,2.243787,1.753114,2.158416,1.903081,-914.0625
2,1,2.755347,3.108115,2.431284,2.971006,2.103956,2.472651,1.856364,2.457958,2.032712,-913.0859
2,1,2.825236,3.128577,2.41414,2.771819,2.117032,2.402032,1.789679,2.393302,1.962444,-912.1094
2,1,2.918138,3.155914,2.34214,2.523845,2.14771,2.344339,1.680353,2.23902,1.987287,-911.1328
2,1,3.047129,3.269543,2.48851,2.480461,2.255147,2.472061,1.843659,2.423239,2.13617,-910.1563
2,1,3.045629,3.315147,2.634759,2.420326,2.283305,2.510176,2.063383,2.534444,2.293395,-909.1797
2,1,2.92365,3.238479,2.542943,2.181525,2.209156,2.347925,2.083223,2.471041,2.436259,-908.2031
2,1,2.996129,3.384722,2.593506,2.234001,2.553077,2.346386,2.233076,2.504521,2.49101,-907.2266
2,1,3.088413,3.40757,2.587881,2.199297,2.805662,2.256508,2.284904,2.386328,2.367475,-906.25
2,1,2.902125,3.128577,2.273589,1.928954,2.660671,1.921423,2.062107,2.062337,2.125427,-905.2734
2,1,2.549218,2.756663,1.866071,1.61326,2.382529,1.549745,1.734876,1.72677,1.814706,-904.2969
2,1,2.36997,2.545985,1.726937,1.508258,2.189484,1.385941,1.5249,1.559844,1.68516,-903.3203
2,1,2.276748,2.465305,1.796729,1.456893,2.108112,1.291486,1.661506,1.415876,1.67994,-902.3438
2,1,2.276904,2.519182,1.896348,1.493136,2.176768,1.278702,1.779575,1.36364,1.727777,-901.3672
2,1,2.350769,2.619981,1.994063,1.622238,2.294112,1.367613,1.771411,1.400371,1.865408,-900.3906
2,1,2.216581,2.54651,1.931797,1.532809,2.156826,1.314774,1.70865,1.465866,1.730193,-899.4141
2,1,1.931158,2.293611,1.731746,1.309752,1.847763,1.229797,1.650113,1.419512,1.611535,-898.4375
2,1,1.776231,2.221161,1.728933,1.346784,1.716493,1.310022,1.599064,1.390591,1.582302,-897.4609
2,1,1.709295,2.217158,1.747388,1.32977,1.640544,1.274701,1.532513,1.336648,1.523931,-896.4844
2,1,1.66636,2.184696,1.670604,1.26271,1.429263,1.181247,1.373886,1.23698,1.349659,-895.5078
2,1,1.625814,2.198489,1.592457,1.409639,1.300775,1.368618,1.247111,1.283065,1.403981,-894.5313
2,1,1.689897,2.26692,1.621281,1.573168,1.364281,1.456732,1.314439,1.346824,1.492083,-893.5547
2,1,1.783489,2.301997,1.70974,1.587963,1.633632,1.49779,1.490116,1.434458,1.526824,-892.5781
2,1,1.707174,2.191149,1.675111,1.583242,1.647433,1.516022,1.414704,1.52774,1.49611,-891.6016
2,1,1.783049,2.234193,1.73802,1.774734,1.628581,1.664331,1.425712,1.695147,1.650116,-890.625
2,1,2.012077,2.431059,1.945222,1.986281,1.705382,1.795014,1.507515,1.841367,1.696487,-889.6484
2,1,2.127109,2.553151,1.966916,2.192954,1.844685,1.872568,1.460097,1.88057,1.641321,-888.6719
2,1,2.073546,2.518468,1.876144,2.306727,1.802707,1.911823,1.290993,1.813393,1.537149,-887.6953
2,1,1.912735,2.367334,1.76065,2.33108,1.511427,1.903979,1.040787,1.683438,1.283061,-886.7188
2,1,1.864871,2.26194,1.63504,2.3212,1.322974,1.825785,0.983218,1.616795,1.222687,-885.7422
2,1,2.025078,2.385526,1.810413,2.382146,1.616077,1.952588,1.193648,1.784933,1.395066,-884.7656
2,1,2.026939,2.405065,1.855232,2.320863,1.830941,1.978683,1.197045,1.89668,1.381525,-883.7891
2,1,1.914654,2.289043,1.716275,2.024645,1.726769,1.805919,1.112152,1.836541,1.287949,-882.8125
2,1,1.862031,2.254416,1.639926,1.974703,1.75054,1.688685,1.16378,1.687878,1.250726,-881.8359
2,1,1.696861,2.192372,1.53479,1.866008,1.682246,1.621549,1.126587,1.564234,1.137797,-880.8594
2,1,1.683949,2.224933,1.562196,1.838552,1.769437,1.779107,1.241537,1.695659,1.151863,-879.8828
2,1,1.637735,2.148429,1.490034,1.79089,1.688926,1.754541,1.096791,1.64789,1.148071,-878.9063
2,1,1.607137,2.059013,1.426927,1.824875,1.540321,1.747013,0.88659,1.544946,0.981745,-877.9297
2,1,1.649911,2.038247,1.394394,1.836894,1.401293,1.681255,0.76272,1.494182,0.942791,-876.9531
2,1,1.674375,2.032454,1.395176,1.791222,1.325235,1.622148,0.619889,1.511274,0.916881,-875.9766
2,1,1.813611,2.119802,1.419961,1.738489,1.338192,1.54255,0.659498,1.530886,1.026959,-875.0
2,1,1.909458,2.180833,1.445286,1.751444,1.455094,1.574476,0.745868,1.594426,1.038743,-874.0234
2,1,1.967536,2.250902,1.518252,1.792845,1.77306,1.607406,0.892282,1.562432,1.011033,-873.0469
2,1,1.856196,2.113632,1.361813,1.609773,1.831252,1.478673,0.867548,1.38311,1.028324,-872.0703
2,1,1.654712,1.901715,1.184584,1.416322,1.596827,1.387736,0.730495,1.255113,0.974349,-871.0938
2,1,1.491335,1.746894,1.095128,1.335428,1.446168,1.335458,0.732023,1.229445,0.865282,-870.1172
2,1,1.530055,1.770422,1.066343,1.381744,1.419204,1.274594,0.808797,1.248014,0.894985,-869.1406
2,1,1.605564,1.87996,1.100424,1.497884,1.459133,1.357846,0.763794,1.331882,0.844411,-868.1641
2,1,1.617994,1.950715,1.145339,1.637,1.392779,1.380753,0.721361,1.381646,0.711464,-867.1875
2,1,1.64331,2.045056,1.251634,1.676942,1.326174,1.43319,0.84329,1.481904,0.762836,-866.2109
2,1,1.623439,2.065008,1.348843,1.607151,1.201715,1.435078,0.976335,1.499195,0.902691,-865.2344
2,1,1.430375,1.845754,1.204535,1.394641,0.96505,1.322954,0.799376,1.443155,0.821942,-864.2578
2,1,1.396045,1.805618,1.191561,1.146592,1.042226,1.213993,0.745331,1.37692,0.74746,-863.2813
2,1,1.32426,1.770578,1.236243,0.978806,1.064465,1.045802,0.817359,1.248424,0.732937,-862.3047
2,1,1.257124,1.695322,1.154845,0.941959,1.006079,1.025285,0.828557,1.216209,0.786716,-861.3281
2,1,1.434398,1.818204,1.282498,1.031596,1.182086,1.219888,0.891381,1.355257,1.146098,-860.3516
2,1,1.530278,1.841876,1.304211,1.010003,1.257532,1.238919,0.843654,1.358652,1.22345,-859.375
2,1,1.409977,1.654033,1.099374,0.771715,1.200721,0.993414,0.755309,1.20132,1.143702,-858.3984
2,1,1.046873,1.362096,0.855708,0.456217,0.899278,0.721673,0.670057,0.941801,1.132313,-857.4219
2,1,1.017592,1.42572,0.869171,0.568713,0.855221,0.748746,0.834477,0.796851,1.221587,-856.4453
2,1,1.004982,1.426855,0.87681,0.702064,0.919296,0.836154,0.808852,0.871255,1.192059,-855.4688
2,1,1.066538,1.521959,0.942495,0.91986,1.00648,0.989002,0.791737,1.099196,1.199084,-854.4922
2,1,1.241606,1.678842,1.056045,1.21315,1.10611,1.124394,0.786511,1.247394,1.127311,-853.5156
2,1,1.175205,1.578242,0.965011,1.231723,0.915706,1.082601,0.638624,1.087979,0.903123,-852.5391
2,1,1.196942,1.634508,1.031809,1.296833,0.909006,1.183092,0.693619,1.096712,0.87592,-851.5625
2,1,1.306302,1.78543,1.19493,1.4324,0.875352,1.359192,0.801039,1.314185,0.923375,-850.5859
2,1,1.436792,1.937652,1.270214,1.589836,0.894357,1.493421,0.734925,1.481713,0.981144,-849.6094
2,1,1.431712,1.901955,1.221551,1.70442,0.89335,1.521245,0.604308,1.540115,0.955377,-848.6328
2,1,1.40886,1.826469,1.132869,1.584579,0.897386,1.389288,0.65813,1.494884,0.937612,-847.6563
2,1,1.44209,1.842933,1.139114,1.569092,0.987175,1.420393,0.752864,1.550902,0.929143,-846.6797
2,1,1.518319,1.934892,1.1566,1.781905,1.066041,1.541414,0.713775,1.580233,0.926868,-845.7031
2,1,1.491032,1.881213,1.01579,1.905846,1.030532,1.517547,0.584074,1.424016,0.92118,-844.7266
2,1,1.417246,1.842339,0.968352,2.011594,1.015692,1.514245,0.505492,1.385132,0.903778,-843.75
2,1,1.339197,1.818883,0.971071,2.027131,1.089638,1.508262,0.476086,1.365144,0.943623,-842.7734
2,1,1.317411,1.774855,0.875728,1.840065,1.308449,1.437376,0.482954,1.261232,1.006946,-841.7969
2,1,1.132909,1.570871,0.794041,1.525204,1.223021,1.253424,0.40385,1.075951,0.903403,-840.8203
2,1,1.242845,1.665028,0.929025,1.543617,1.336428,1.242268,0.44283,1.036745,0.895365,-839.8438
2,1,1.47182,1.845732,1.058789,1.652504,1.571269,1.31253,0.566683,1.200263,0.939533,-838.8672
2,1,1.502941,1.920522,1.169244,1.565335,1.618275,1.324157,0.716771,1.303046,1.031427,-837.8906
2,1,1.516444,1.89343,1.219956,1.543584,1.535074,1.361947,0.832977,1.355818,0.99155,-836.9141
2,1,1.592759,1.912562,1.266966,1.622051,1.54252,1.44493,0.871568,1.310838,1.035763,-835.9375
2,1,1.673662,1.988702,1.330129,1.716314,1.7135,1.621735,0.907455,1.365405,1.110708,-834.9609
2,1,1.837612,2.158835,1.396429,1.854099,1.994471,1.69251,1.074847,1.360709,1.231228,-833.9844
2,1,1.975321,2.287769,1.519289,1.89532,2.140393,1.569847,1.245068,1.287082,1.430758,-833.0078
2,1,2.133656,2.355889,1.624009,2.057384,2.282444,1.612081,1.313477,1.360695,1.641164,-832.0313
2,1,2.232178,2.423117,1.669488,2.116291,2.445609,1.718762,1.412658,1.412412,1.66879,-831.0547
2,1,2.237305,2.423487,1.66292,2.013491,2.349894,1.774377,1.38462,1.496534,1.648603,-830.0781
2,1,2.25928,2.44962,1.652448,1.959993,2.214319,1.860212,1.277241,1.569547,1.641398,-829.1016
2,1,2.089429,2.34898,1.508384,1.813889,2.00682,1.760821,1.07372,1.468546,1.395669,-828.125
2,1,1.823774,2.108925,1.28869,1.617106,1.877049,1.557015,0.921224,1.311699,1.105351,-827.1484
2,1,1.727081,2.011498,1.231933,1.571692,1.757227,1.562109,0.882096,1.237857,0.955075,-826.1719
2,1,1.791729,2.09692,1.331341,1.624563,1.842103,1.503574,0.985797,1.167527,1.003362,-825.1953
2,1,1.929284,2.261078,1.507952,1.749585,2.086364,1.614388,1.135469,1.256831,1.124914,-824.2188
2,1,1.955229,2.276967,1.502127,1.718487,2.107663,1.647232,1.108328,1.276049,1.035643,-823.2422
2,1,1.900729,2.25806,1.466034,1.755869,2.001787,1.650955,1.037861,1.2622,0.927378,-822.2656
2,1,1.97153,2.331074,1.535636,1.89483,2.019659,1.743736,1.205017,1.240197,0.996251,-821.2891
2,1,2.07741,2.406823,1.680316,2.015731,2.133493,1.864172,1.404192,1.362671,1.137884,-820.3125
2,1,2.032287,2.324958,1.630686,1.906997,2.172289,1.775658,1.312901,1.357986,1.088609,-819.3359
2,1,1.703977,2.070707,1.350302,1.474537,1.977573,1.503386,1.074107,1.112668,0.913961,-818.3594
2,1,1.497597,1.91904,1.280534,1.302667,1.72253,1.478806,0.996095,1.14272,0.834812,-817.3828
2,1,1.366385,1.821391,1.225855,1.26902,1.689898,1.427451,1.00825,1.117231,0.867643,-816.4063
2,1,1.269231,1.751476,1.231239,1.226649,1.866639,1.281558,1.053799,1.016421,0.842637,-815.4297
2,1,1.278558,1.794917,1.23777,1.159437,2.031069,1.185874,1.111003,0.937135,0.729294,-814.4531
2,1,1.262593,1.771995,1.111781,1.099879,1.928023,1.089748,0.987968,0.824588,0.624388,-813.4766
2,1,1.352519,1.753395,1.123896,1.158732,1.74077,1.092328,0.946678,0.882959,0.712585,-812.5
2,1,1.397177,1.758087,1.173964,1.231478,1.692673,1.27989,0.871743,1.100848,0.866711,-811.5234
2,1,1.297307,1.709291,1.124584,1.246861,1.822849,1.411131,0.827551,1.203403,0.781649,-810.5469
2,1,1.305777,1.740716,1.141603,1.301482,1.891636,1.484883,0.903265,1.30198,0.752416,-809.5703
2,1,1.222889,1.653849,1.024169,1.315197,1.788469,1.37648,0.85603,1.26877,0.771742,-808.5938
2,1,1.102777,1.540574,0.87042,1.324818,1.472889,1.325323,0.709905,1.132738,0.75033,-807.6172
2,1,1.286707,1.669723,0.985942,1.353566,1.522334,1.375009,0.775229,1.221625,0.876894,-806.6406
2,1,1.370512,1.683795,0.99856,1.309819,1.590296,1.330147,0.835512,1.182832,0.968597,-805.6641
2,1,1.167895,1.405388,0.753162,1.09563,1.348388,1.048494,0.626888,0.878853,0.84218,-804.6875
2,1,1.024802,1.244548,0.606625,1.156027,1.24546,0.964351,0.581227,0.758821,0.680899,-803.7109
2,1,1.059277,1.313327,0.662895,1.305826,1.27289,1.086936,0.692209,0.842319,0.569108,-802.7344
2,1,1.022431,1.342257,0.67088,1.31167,1.227118,1.024025,0.671546,0.824198,0.570864,-801.7578
2,1,1.153602,1.555782,0.882989,1.5762,1.261678,1.184799,0.810373,0.9571,0.761593,-800.7813
2,1,1.277216,1.686721,1.086115,1.546247,1.294367,1.286088,0.947188,1.081532,0.845498,-799.8047
2,1,1.362673,1.741421,1.213681,1.479893,1.442145,1.423091,0.999924,1.273756,0.956064,-798.8281
2,1,1.518772,1.879893,1.327016,1.57016,1.54937,1.598124,1.134129,1.55093,1.188914,-797.8516
2,1,1.510732,1.859909,1.258839,1.469717,1.384639,1.622466,1.117021,1.587404,1.165503,-796.875
2,1,1.344217,1.65438,1.092553,1.33853,1.192392,1.474318,0.947178,1.406286,1.001401,-795.8984
2,1,1.324241,1.56877,1.02083,1.354748,1.209206,1.332796,0.827736,1.295741,0.95919,-794.9219
2,1,1.148262,1.414968,0.847565,1.252878,1.092574,1.091698,0.540714,0.988342,0.746004,-793.9453
2,1,0.877166,1.222226,0.61988,1.11909,0.833656,0.917528,0.213862,0.842427,0.431025,-792.9688
2,1,0.813975,1.180814,0.629403,1.10365,0.851711,1.024096,0.257601,0.939141,0.368177,-791.9922
2,1,0.932229,1.264109,0.719892,1.16644,1.051305,1.087746,0.350656,0.976555,0.40817,-791.0156
2,1,1.149953,1.437427,0.818794,1.345895,1.257279,1.052361,0.378374,0.91087,0.423092,-790.0391
2,1,1.221061,1.550926,0.930084,1.389491,1.252328,1.173741,0.443174,0.938905,0.472362,-789.0625
2,1,1.347381,1.65919,0.965169,1.312507,1.301775,1.246768,0.53936,0.950555,0.456003,-788.0859
2,1,1.414045,1.686696,1.00037,1.295145,1.338551,1.218778,0.588432,0.952762,0.521242,-787.1094
2,1,1.395211,1.692201,1.028398,1.130812,1.311664,1.186662,0.660772,1.000473,0.705934,-786.1328
2,1,1.435393,1.794239,1.118847,1.158335,1.195099,1.2379,0.719333,1.062318,0.821307,-785.1563
2,1,1.571221,1.965609,1.332109,1.472021,1.137049,1.557133,0.79129,1.3432,0.977003,-784.1797
2,1,1.681911,2.058416,1.364919,1.582383,1.28761,1.594634,0.827111,1.417199,0.93881,-783.2031
2,1,1.634204,1.964714,1.201548,1.62941,1.273651,1.547594,0.738971,1.348881,0.797815,-782.2266
2,1,1.597345,1.979467,1.218978,1.781786,1.403036,1.662767,0.75143,1.406785,0.71146,-781.25
2,1,1.652282,2.066793,1.275268,1.897564,1.655322,1.695839,0.860365,1.345605,0.696654,-780.2734
2,1,1.501892,1.930783,1.059725,1.774123,1.519871,1.577149,0.861776,1.183047,0.617813,-779.2969
2,1,1.285759,1.740894,0.919762,1.601416,1.312518,1.469668,0.675012,1.096839,0.437589,-778.3203
2,1,1.068336,1.477756,0.687144,1.390904,1.101488,1.2654,0.307166,0.934543,0.125528,-777.3438
2,1,0.95665,1.292442,0.516371,1.221339,0.883134,1.101999,0.216007,0.809752,0.033479,-776.3672
2,1,0.785441,1.122831,0.430391,0.959204,0.709294,0.924496,0.0810639999999999,0.714259,0.0836219999999999,-775.3906
2,1,0.767586,1.166402,0.571414,1.040694,0.768607,1.007985,0.11903,0.851623,0.249066,-774.4141
2,1,0.844543,1.312626,0.650413,1.038469,0.973501,1.063238,0.174835,0.914664,0.31941,-773.4375
2,1,0.960044,1.46701,0.686564,0.980593,1.114333,1.076794,0.331159,1.016384,0.427213,-772.4609
2,1,1.045654,1.505993,0.759268,1.010358,0.991121,1.145595,0.381938,1.115792,0.473005,-771.4844
2,1,0.906453,1.31702,0.611929,0.912034,0.724338,1.099197,0.149283,1.082009,0.334289,-770.5078
2,1,0.734651,1.129561,0.452179,0.861581,0.658748,1.039951,-0.107164,0.943856,0.260876,-769.5313
2,1,0.658093,1.049345,0.41194,0.782507,0.704288,0.984589,-0.16425,0.885837,0.237527,-768.5547
2,1,0.763803,1.198742,0.541496,0.926278,0.888108,1.108425,0.180455,0.99507,0.449703,-767.5781
2,1,0.909759,1.355985,0.715431,1.104548,0.971865,1.138667,0.448998,1.004422,0.641397,-766.6016
2,1,1.009302,1.395431,0.782934,1.107997,0.98084,1.134464,0.322692,0.95553,0.635304,-765.625
2,1,1.045531,1.457853,0.758589,0.987251,0.99037,1.148676,0.24751,1.029314,0.679279,-764.6484
2,1,0.939922,1.372604,0.618797,0.736866,0.902301,0.882642,0.149969,0.859134,0.563599,-763.6719
2,1,1.055199,1.469634,0.640838,0.841906,0.95257,0.820569,0.274827,0.687534,0.492194,-762.6953
2,1,1.280405,1.727867,0.931307,1.177922,1.009987,1.170061,0.540465,0.940727,0.755285,-761.7188
2,1,1.363454,1.806981,1.084729,1.321733,1.023209,1.247641,0.579874,1.053491,1.01126,-760.7422
2,1,1.206761,1.615767,0.877588,1.236383,0.841517,1.049652,0.425438,0.762575,0.921886,-759.7656
2,1,0.88839,1.261947,0.540096,0.966934,0.519343,0.780281,0.186232,0.37368,0.656684,-758.7891
2,1,0.656461,1.066492,0.321052,0.660576,0.367651,0.623183,0.034583,0.214993,0.545017,-757.8125
2,1,0.604246,1.050938,0.261527,0.586505,0.462328,0.557558,-0.0260780000000001,0.192203,0.44707,-756.8359
2,1,0.853145,1.302392,0.553932,0.814889,0.822628,0.751837,0.212426,0.316304,0.663543,-755.8594
2,1,1.054608,1.471459,0.757894,0.992006,0.997391,0.974902,0.433981,0.498242,0.912398,-754.8828
2,1,1.018531,1.48178,0.741815,0.967471,0.877949,0.917381,0.389576,0.510747,0.889746,-753.9063
2,1,1.169168,1.619291,0.874789,1.195674,0.906171,1.008663,0.57779,0.737133,1.013741,-752.9297
2,1,1.167387,1.557804,0.826203,1.151864,0.835583,1.009446,0.63237,0.81762,1.057977,-751.9531
2,1,1.089553,1.448048,0.759308,1.10497,0.800778,1.065301,0.567764,0.896614,1.014828,-750.9766
2,1,1.181968,1.514367,0.802968,1.090131,0.939838,1.112716,0.619501,0.980842,1.084549,-750.0
2,1,1.282073,1.62046,0.845187,1.100458,1.069471,1.063449,0.643529,0.932032,1.110945,-749.0234
2,1,1.228698,1.559209,0.787825,1.1931,0.995952,1.119714,0.493553,0.880768,0.902871,-748.0469
2,1,1.256664,1.578,0.868329,1.24705,0.970387,1.220934,0.474382,0.996591,0.87697,-747.0703
2,1,1.382612,1.705136,0.957366,1.391225,1.154655,1.358861,0.551132,1.076526,0.887896,-746.0938
2,1,1.364618,1.749729,0.846215,1.498178,1.152062,1.466554,0.45425,1.086383,0.861843,-745.1172
2,1,1.193344,1.662054,0.717237,1.338111,0.858707,1.385525,0.276303,0.989757,0.760888,-744.1406
2,1,1.178137,1.601626,0.716852,1.206217,0.853104,1.405104,0.281792,0.996111,0.890678,-743.1641
2,1,1.028725,1.383572,0.524319,1.122909,0.716294,1.367381,0.08909,0.893678,0.848567,-742.1875
2,1,0.798825,1.213035,0.425216,0.933013,0.625345,1.206797,0.0020709999999999,0.757973,0.763052,-741.2109
2,1,0.65215,1.068233,0.327056,0.570743,0.672822,0.975923,-0.073442,0.555358,0.710334,-740.2344
2,1,0.591429,0.967752,0.162745,0.488823,0.579668,0.874744,-0.165226,0.463768,0.545974,-739.2578
2,1,0.7398,1.071598,0.280759,0.551914,0.584288,0.920592,-0.060239,0.661079,0.669378,-738.2813
2,1,0.881894,1.223282,0.44031,0.62189,0.773859,1.039006,0.0007739999999999,0.829549,0.738306,-737.3047
2,1,0.794619,1.187835,0.41199,0.59204,0.903492,1.060503,-0.051433,0.692789,0.61558,-736.3281
2,1,0.680574,1.052492,0.31511,0.477091,0.715178,0.967515,-0.160746,0.53383,0.497428,-735.3516
2,1,0.658755,1.012775,0.30331,0.462715,0.903352,0.847909,-0.153286,0.423335,0.460323,-734.375
2,1,0.774804,1.065817,0.348478,0.508342,1.326194,0.790451,-0.039249,0.337109,0.614336,-733.3984
2,1,0.871537,1.180075,0.4245,0.61421,1.473922,0.855591,0.0775989999999999,0.463124,0.698227,-732.4219
2,1,0.741744,1.136451,0.341979,0.581449,1.324385,0.851849,0.151716,0.419881,0.535416,-731.4453
2,1,0.578959,0.985502,0.264193,0.540544,1.137718,0.758658,-0.025332,0.305175,0.37925,-730.4688
2,1,0.237103,0.603409,-0.104904,0.364309,0.813161,0.455428,-0.431758,0.110061,0.114924,-729.4922
2,1,-0.049117,0.352565,-0.365608,0.063318,0.593217,0.238455,-0.687771,-0.049928,-0.123731,-728.5156
2,1,-0.206129,0.205976,-0.502308,-0.110349,0.386423,0.1223,-0.893686,-0.184534,-0.391025,-727.5391
2,1,-0.301807,0.07429,-0.571453,-0.278618,0.174211,0.060257,-0.994047,-0.205335,-0.450042,-726.5625
2,1,-0.0893459999999999,0.276979,-0.366232,-0.150335,0.23744,0.260392,-0.85246,0.079555,-0.218676,-725.5859
2,1,0.342183,0.620751,-0.072773,0.181944,0.545277,0.566352,-0.492801,0.361075,0.0800650000000001,-724.6094
2,1,0.759028,0.968133,0.26095,0.539953,0.987322,0.857605,-0.189498,0.603111,0.438611,-723.6328
2,1,0.848098,1.017776,0.335794,0.644369,1.005683,0.930725,-0.172043,0.730721,0.481194,-722.6563
2,1,0.593864,0.763239,0.169548,0.483263,0.627131,0.829387,-0.34586,0.6086,0.327454,-721.6797
2,1,0.290151,0.475429,-0.060693,0.306003,0.515641,0.649851,-0.561693,0.44925,0.268208,-720.7031
2,1,0.205691,0.407591,-0.149539,0.315187,0.462685,0.554569,-0.729307,0.343952,0.112909,-719.7266
2,1,0.418714,0.627207,0.087353,0.479016,0.657508,0.776128,-0.551146,0.56314,0.137351,-718.75
2,1,0.601585,0.785358,0.187136,0.601823,0.893474,0.923644,-0.32701,0.706177,0.368055,-717.7734
2,1,0.612941,0.825334,0.189194,0.535707,0.949725,0.910719,-0.28171,0.715405,0.550701,-716.7969
2,1,0.600181,0.881566,0.326021,0.71,1.001292,1.109153,-0.149129,0.976754,0.670872,-715.8203
2,1,0.525129,0.876737,0.368271,0.83596,1.099505,1.16911,-0.149432,0.950827,0.668187,-714.8438
2,1,0.413805,0.744594,0.189288,0.720005,0.941579,0.997846,-0.233089,0.746622,0.466613,-713.8672
2,1,0.432745,0.735451,0.0768750000000001,0.549449,0.834729,0.918262,-0.226904,0.791325,0.461988,-712.8906
2,1,0.217983,0.604376,-0.03089,0.435033,0.708714,0.822747,-0.380724,0.717192,0.266844,-711.9141
2,1,0.196549,0.650108,0.082268,0.538777,0.732148,0.953251,-0.332762,0.747281,0.256933,-710.9375
2,1,0.298539,0.748758,0.182923,0.613702,0.909743,0.94684,-0.293972,0.726825,0.284371,-709.9609
2,1,0.404795,0.815811,0.13894,0.687492,1.02284,0.863729,-0.303122,0.651293,0.28829,-708.9844
2,1,0.41171,0.857486,0.114525,0.758971,0.951016,0.895724,-0.3354,0.619572,0.203146,-708.0078
2,1,0.2822,0.772702,0.0269539999999999,0.737748,0.826576,0.859412,-0.41188,0.628129,0.148087,-707.0313
2,1,0.128558,0.639982,-0.104214,0.799458,0.515004,0.80268,-0.530484,0.569405,0.035677,-706.0547
2,1,-0.025276,0.473692,-0.183171,0.695354,0.235292,0.735156,-0.568791,0.465519,-0.12099,-705.0781
2,1,-0.103233,0.368012,-0.182493,0.584664,0.158156,0.793292,-0.633547,0.506653,-0.057505,-704.1016
2,1,-0.204816,0.258313,-0.251354,0.413805,0.120229,0.755524,-0.775881,0.476918,-0.081845,-703.125
2,1,-0.133103,0.253392,-0.293316,0.41703,0.257153,0.710182,-0.739835,0.482331,-0.016452,-702.1484
2,1,0.206264,0.544186,-0.109609,0.644858,0.550759,0.73578,-0.63501,0.589856,0.130296,-701.1719
2,1,0.27167,0.660637,-0.031471,0.769593,0.553258,0.880352,-0.574023,0.699216,0.136853,-700.1953
2,1,0.172131,0.571564,-0.03411,0.740947,0.339466,0.948876,-0.596822,0.686665,0.053227,-699.2188
2,1,0.076177,0.453912,-0.134753,0.605122,0.231985,0.836186,-0.652984,0.604818,0.042854,-698.2422
2,1,0.216058,0.526623,-0.055911,0.714268,0.351779,0.896829,-0.438527,0.700026,0.07745,-697.2656
2,1,0.345276,0.603933,0.03003,0.754457,0.450808,0.942671,-0.373875,0.745128,0.0194579999999999,-696.2891
2,1,0.435698,0.706748,0.0596000000000001,0.669002,0.696244,0.884816,-0.283831,0.765439,0.145137,-695.3125
2,1,0.384947,0.632809,-0.005893,0.466824,0.694,0.764356,-0.295915,0.630954,0.263197,-694.3359
2,1,0.323969,0.528281,-0.04406,0.362763,0.702951,0.672224,-0.332409,0.565164,0.282807,-693.3594
2,1,0.327129,0.457811,-0.0736599999999999,0.086962,0.80029,0.501694,-0.315459,0.48654,0.267766,-692.3828
2,1,0.354561,0.469887,-0.041021,-0.0717520000000001,0.712467,0.477036,-0.361762,0.538911,0.202129,-691.4063
2,1,0.497236,0.636595,0.147933,-0.071058,0.787745,0.616806,-0.187073,0.697183,0.259857,-690.4297
2,1,0.528146,0.681963,0.233202,-0.045297,0.860251,0.703583,-0.088728,0.799146,0.44256,-689.4531
2,1,0.570747,0.747024,0.426867,0.145531,0.857393,0.790628,-0.047584,0.854232,0.459917,-688.4766
2,1,0.6278,0.824701,0.531936,0.157442,0.920479,0.808517,0.080153,0.882906,0.35805,-687.5
2,1,0.566613,0.795641,0.482354,0.100119,0.993207,0.834161,0.192274,0.971936,0.358604,-686.5234
2,1,0.395398,0.637729,0.265792,-0.023625,0.971916,0.632189,0.077686,0.733878,0.214582,-685.5469
2,1,0.301754,0.604049,0.257396,0.059214,1.058702,0.545281,-0.012813,0.500069,0.0396539999999999,-684.5703
2,1,0.406117,0.747604,0.369796,0.266958,1.178598,0.714739,0.164964,0.584608,0.091755,-683.5938
2,1,0.524876,0.857529,0.476723,0.446942,1.236843,0.86448,0.268946,0.750788,0.327986,-682.6172
2,1,0.422344,0.768315,0.377126,0.566112,1.036909,0.892404,0.16591,0.706705,0.407821,-681.6406
2,1,0.125688,0.495761,0.123166,0.439595,0.711448,0.711119,-0.152039,0.543537,0.196441,-680.6641
2,1,-0.080505,0.295799,-0.081224,0.294716,0.368416,0.588267,-0.335826,0.396493,-0.016724,-679.6875
2,1,0.039822,0.35617,-0.048302,0.334566,0.432822,0.631217,-0.235831,0.384513,0.043992,-678.7109
2,1,0.218282,0.495015,0.0501470000000001,0.526634,0.527805,0.666337,-0.188889,0.382149,-0.031075,-677.7344
2,1,0.15352,0.483696,0.013476,0.482438,0.366081,0.634653,-0.305954,0.411572,-0.167911,-676.7578
2,1,0.180669,0.496,0.03553,0.418478,0.424797,0.62497,-0.250482,0.452413,-0.03097,-675.7813
2,1,0.150649,0.470428,0.020051,0.397913,0.459841,0.618066,-0.129587,0.405944,0.100707,-674.8047
2,1,0.164641,0.465433,0.007869,0.382769,0.476605,0.604739,-0.139619,0.380776,0.0932230000000001,-673.8281
2,1,0.322117,0.58282,0.140681,0.441769,0.705861,0.67285,-0.043562,0.430454,0.232581,-672.8516
2,1,0.346506,0.571416,0.155503,0.414511,0.69027,0.695301,-0.0550990000000001,0.522251,0.189406,-671.875
2,1,0.211525,0.417633,-0.064803,0.341453,0.377376,0.516336,-0.221815,0.406132,-0.0254130000000001,-670.8984
2,1,0.085814,0.306427,-0.229745,0.289557,0.0584310000000001,0.382444,-0.412514,0.298547,-0.160526,-669.9219
2,1,-0.090168,0.148967,-0.431797,0.124883,-0.10014,0.217611,-0.574801,-0.0030049999999999,-0.402432,-668.9453
2,1,-0.30907,-0.038669,-0.615894,0.0099799999999999,-0.34695,0.007764,-0.828999,-0.289918,-0.691957,-667.9688
2,1,-0.311856,-0.0098619999999999,-0.631645,0.079792,-0.411187,-0.02366,-0.79533,-0.303246,-0.778729,-666.9922
2,1,-0.092177,0.229399,-0.425547,0.446827,-0.159927,0.272001,-0.548629,-0.0923259999999999,-0.578205,-666.0156
2,1,0.077641,0.401753,-0.244293,0.763239,0.111417,0.493206,-0.368523,0.093891,-0.348009,-665.0391
2,1,0.14357,0.467824,-0.232428,0.854122,0.143829,0.557401,-0.308257,0.198492,-0.308567,-664.0625
2,1,0.167249,0.474067,-0.169659,0.724136,0.002095,0.607791,-0.328701,0.282394,-0.362245,-663.0859
2,1,0.090761,0.419735,-0.150269,0.637313,-0.128729,0.67605,-0.47564,0.291133,-0.54407,-662.1094
2,1,0.019698,0.293904,-0.31155,0.605464,-0.291649,0.546661,-0.656655,0.087861,-0.713252,-661.1328
2,1,-0.0699620000000001,0.158388,-0.482549,0.438156,-0.541168,0.447174,-0.811878,-0.080995,-0.848032,-660.1563
2,1,-0.082304,0.143744,-0.466881,0.240261,-0.538158,0.460867,-0.916821,-0.124189,-0.870265,-659.1797
2,1,-0.019337,0.217778,-0.353016,0.093132,-0.419546,0.411526,-0.855783,-0.09594,-0.762919,-658.2031
2,1,0.001476,0.21194,-0.3377,-0.09867,-0.430634,0.250214,-0.695312,-0.066662,-0.578425,-657.2266
2,1,0.04936,0.286462,-0.313861,-0.0727740000000001,-0.320282,0.240325,-0.549685,0.047337,-0.45768,-656.25
2,1,0.0054359999999999,0.209801,-0.445719,-0.046557,-0.204009,0.168395,-0.597683,-0.05396,-0.534015,-655.2734
2,1,0.075738,0.250986,-0.391697,0.074449,-0.200137,0.180792,-0.617534,-0.105829,-0.577232,-654.2969
2,1,0.24904,0.486722,-0.09683,0.368984,-0.043203,0.407122,-0.495389,0.084147,-0.338,-653.3203
2,1,0.511066,0.764437,0.177085,0.666462,0.303552,0.699353,-0.351064,0.315941,-0.034417,-652.3438
2,1,0.662463,0.859816,0.286247,0.815244,0.513544,0.69879,-0.291614,0.287082,0.019772,-651.3672
2,1,0.68332,0.879035,0.293937,0.760109,0.586724,0.608248,-0.173192,0.20101,0.03535,-650.3906
2,1,0.738465,0.935211,0.298028,0.735855,0.605687,0.594686,-0.0276710000000001,0.271684,0.0622,-649.4141
2,1,0.721023,0.966906,0.323834,0.868214,0.734912,0.658393,0.020335,0.350376,-0.0824809999999999,-648.4375
2,1,0.727255,1.013463,0.466344,0.934004,1.051733,0.834419,0.044476,0.485002,-0.0156490000000001,-647.4609
2,1,0.662075,0.940749,0.347398,0.885232,0.953483,0.863902,-0.100816,0.52127,-0.0593390000000001,-646.4844
2,1,0.440815,0.819047,0.173174,0.736571,0.546624,0.81542,-0.272809,0.448069,-0.301559,-645.5078
2,1,0.326941,0.760665,0.175939,0.613305,0.433546,0.794651,-0.332502,0.49957,-0.38238,-644.5313
2,1,0.624448,1.003077,0.490243,0.758018,0.757026,1.02094,-0.065434,0.6931,-0.154925,-643.5547
2,1,0.910973,1.248547,0.745684,0.965312,0.919379,1.349935,0.205718,0.928387,0.093296,-642.5781
2,1,0.869167,1.21363,0.698757,0.923639,0.891658,1.306761,0.041332,0.919914,0.113169,-641.6016
2,1,0.671521,1.058168,0.578623,0.764546,0.799567,1.150566,-0.230642,0.70075,-0.084712,-640.625
2,1,0.523071,0.906791,0.420311,0.767509,0.851865,1.082053,-0.408884,0.55468,-0.261311,-639.6484
2,1,0.472864,0.840939,0.270894,0.801625,0.935753,1.04921,-0.430049,0.534003,-0.392098,-638.6719
2,1,0.356812,0.681373,0.154687,0.677121,0.808269,0.893657,-0.633412,0.415519,-0.629287,-637.6953
2,1,0.17361,0.481605,-0.024795,0.493377,0.684327,0.660406,-0.825367,0.106902,-0.848895,-636.7188
2,1,0.127082,0.535535,-0.0228740000000001,0.493426,0.738332,0.649972,-0.741781,0.0240159999999999,-0.73329,-635.7422
2,1,0.285408,0.728381,0.249739,0.733023,0.860579,0.816639,-0.425534,0.257124,-0.519936,-634.7656
2,1,0.437136,0.872179,0.374416,1.039649,0.735358,1.063178,-0.292498,0.476364,-0.403574,-633.7891
2,1,0.458864,0.885977,0.28792,1.007788,0.582821,1.132489,-0.298203,0.529981,-0.378374,-632.8125
2,1,0.520224,0.979863,0.355503,0.896939,0.609499,1.13079,-0.325762,0.533439,-0.323604,-631.8359
2,1,0.562139,1.033315,0.42401,0.888944,0.748731,1.243641,-0.206051,0.672233,-0.145063,-630.8594
2,1,0.516469,0.935056,0.324938,0.88084,0.70419,1.249635,-0.208273,0.649357,-0.031138,-629.8828
2,1,0.450333,0.858875,0.244261,0.680903,0.699126,1.136083,-0.089324,0.545343,-0.0193580000000001,-628.9063
2,1,0.468454,0.916362,0.25516,0.641545,0.712919,1.082493,-0.026989,0.532645,0.016932,-627.9297
2,1,0.507958,0.898619,0.283245,0.665763,0.748982,0.973016,-0.049735,0.438662,0.120566,-626.9531
2,1,0.469123,0.827256,0.299961,0.656882,0.709609,0.963577,-0.106685,0.462738,0.279023,-625.9766
2,1,0.430839,0.814049,0.232704,0.550191,0.615278,0.872134,-0.202193,0.426319,0.258563,-625.0
2,1,0.344947,0.790761,0.214981,0.460636,0.694669,0.844928,-0.140804,0.434583,0.220257,-624.0234
2,1,0.127427,0.588263,0.084413,0.328761,0.620193,0.763303,-0.325707,0.392621,0.107529,-623.0469
2,1,-0.004578,0.412187,-0.008,0.236026,0.415648,0.69944,-0.470823,0.334934,-0.077976,-622.0703
2,1,0.084652,0.499882,0.072014,0.361341,0.447567,0.775133,-0.328741,0.393865,-0.0743,-621.0938
2,1,0.21746,0.652136,0.292707,0.63065,0.669206,0.944776,-0.138292,0.46724,0.102606,-620.1172
2,1,0.384046,0.783523,0.398497,0.821005,0.813934,0.99262,-0.01124,0.534602,0.247518,-619.1406
2,1,0.638179,1.023929,0.541157,1.142654,1.032661,1.211444,0.155762,0.705991,0.369109,-618.1641
2,1,0.706949,1.069249,0.514746,1.309347,0.956865,1.252557,0.048274,0.639252,0.267875,-617.1875
2,1,0.63211,0.925838,0.335579,1.325851,0.808323,1.085236,0.010469,0.455508,0.0870890000000001,-616.2109
2,1,0.463306,0.765155,0.15851,1.016267,0.525497,0.912665,-0.161368,0.323105,-0.073257,-615.2344
2,1,0.416401,0.67857,0.11429,0.797018,0.438697,0.762624,-0.297761,0.175288,-0.083521,-614.2578
2,1,0.519286,0.79006,0.241866,0.852874,0.648437,0.843289,-0.145136,0.25736,0.029362,-613.2813
2,1,0.673634,0.942731,0.424785,0.945104,0.935502,1.102367,0.021043,0.548761,0.102032,-612.3047
2,1,0.866675,1.127227,0.633483,1.158989,1.173659,1.308687,0.244382,0.81748,0.344208,-611.3281
2,1,0.720687,1.020504,0.616202,1.133345,1.030762,1.293623,0.213946,0.807402,0.349586,-610.3516
2,1,0.546019,0.90549,0.543543,1.04189,0.892532,1.249508,0.191355,0.750446,0.290365,-609.375
2,1,0.510334,0.848859,0.440349,1.015643,0.881128,1.219482,0.17835,0.6692,0.29521,-608.3984
2,1,0.431915,0.725341,0.316146,0.895564,1.027075,1.108323,0.079927,0.555527,0.262615,-607.4219
2,1,0.380958,0.685477,0.311728,0.82412,1.10899,0.963898,-0.0080889999999999,0.45416,0.240316,-606.4453
2,1,0.395055,0.68134,0.357826,0.706474,1.053531,0.911934,-0.043286,0.519662,0.344619,-605.4688
2,1,0.509091,0.737177,0.442713,0.654092,1.159206,0.974034,0.075204,0.683309,0.497252,-604.4922
2,1,0.583727,0.855235,0.578857,0.749751,1.377791,1.064054,0.292316,0.771606,0.608633,-603.5156
2,1,0.736437,1.040857,0.773208,0.942024,1.625734,1.295046,0.596515,0.955667,0.715379,-602.5391
2,1,0.785092,1.103198,0.853832,1.069755,1.587538,1.490741,0.553696,1.074622,0.784626,-601.5625
2,1,0.620127,0.925213,0.638693,0.794528,1.320295,1.267425,0.334598,0.895671,0.670772,-600.5859
2,1,0.60757,0.939157,0.584852,0.780198,1.487262,1.227676,0.380346,1.008918,0.774224,-599.6094
2,1,0.749849,1.139566,0.752956,1.055326,1.680307,1.454365,0.59333,1.257128,0.97753,-598.6328
2,1,0.953367,1.400512,0.968186,1.27938,1.586865,1.539651,0.708898,1.262648,1.064624,-597.6563
2,1,1.085578,1.536935,1.022967,1.360857,1.61411,1.551932,0.707901,1.209941,0.9811,-596.6797
2,1,1.019584,1.357432,0.809503,1.275095,1.517824,1.442746,0.60536,1.103935,0.923143,-595.7031
2,1,0.828643,1.146256,0.639761,1.266836,1.234529,1.358009,0.381084,1.00177,0.76893,-594.7266
2,1,0.7439,1.105926,0.610552,1.331839,1.063633,1.289656,0.306181,0.980292,0.720832,-593.75
2,1,0.788415,1.209862,0.71769,1.40236,1.036901,1.339035,0.361992,1.026499,0.805808,-592.7734
2,1,0.841588,1.300753,0.792334,1.455229,1.136602,1.415689,0.285861,1.047197,0.856716,-591.7969
2,1,1.04127,1.494427,0.998603,1.653284,1.401471,1.545951,0.378409,1.195363,1.147341,-590.8203
2,1,1.299875,1.795956,1.239807,1.728852,1.623499,1.704268,0.53153,1.406914,1.218321,-589.8438
2,1,1.369255,1.890037,1.310299,1.709905,1.606864,1.857526,0.560177,1.49194,1.132511,-588.8672
2,1,1.189954,1.69023,1.155676,1.568347,1.309479,1.823289,0.367081,1.377186,0.92485,-587.8906
2,1,1.0298,1.447948,0.853491,1.400916,0.981304,1.705026,0.167584,1.267756,0.801032,-586.9141
2,1,0.933517,1.26321,0.728745,1.193274,0.753544,1.550542,-0.023637,1.14228,0.590208,-585.9375
2,1,0.84069,1.199008,0.708466,1.08783,0.715966,1.455157,0.023821,1.039803,0.535318,-584.9609
2,1,0.608674,0.993791,0.576921,0.821886,0.612304,1.238879,-0.117106,0.785391,0.493982,-583.9844
2,1,0.422406,0.794799,0.435677,0.783819,0.44589,1.039866,-0.356855,0.635457,0.360593,-583.0078
2,1,0.3647,0.697029,0.341701,0.836682,0.356068,0.984692,-0.392582,0.645575,0.260067,-582.0313
2,1,0.307832,0.644831,0.248736,0.781768,0.216923,1.049209,-0.41379,0.60238,0.07849,-581.0547
2,1,0.291552,0.695426,0.347502,0.804729,0.1368,1.124634,-0.374763,0.566704,0.088561,-580.0781
2,1,0.545374,1.024015,0.686778,1.205969,0.288824,1.554668,-0.094746,0.939651,0.356747,-579.1016
2,1,0.800045,1.258001,0.914239,1.449986,0.402557,1.77111,0.06687,1.161642,0.58817,-578.125
2,1,0.689652,1.138573,0.798262,1.360953,0.061207,1.634412,-0.071878,0.985415,0.323911,-577.1484
2,1,0.536274,0.979394,0.590025,1.176624,-0.270543,1.410105,-0.31492,0.684272,0.221263,-576.1719
2,1,0.543738,0.975787,0.55658,1.061355,-0.345986,1.264673,-0.352618,0.526078,0.211028,-575.1953
2,1,0.515009,0.974557,0.589719,0.958779,-0.202846,1.101869,-0.350109,0.371494,0.16692,-574.2188
2,1,0.645547,1.14326,0.763022,1.076667,0.12176,1.219281,-0.0467349999999999,0.493474,0.413136,-573.2422
2,1,0.765605,1.262648,0.835808,1.319132,0.244078,1.347045,0.147204,0.620524,0.552283,-572.2656
2,1,0.698475,1.206981,0.720763,1.373729,0.168947,1.287355,-0.0236550000000001,0.592796,0.455085,-571.2891
2,1,0.767673,1.217824,0.83678,1.534986,0.404859,1.367249,0.054344,0.695969,0.546964,-570.3125
2,1,0.92491,1.329265,1.047558,1.699542,0.614072,1.632998,0.306351,0.879206,0.629725,-569.3359
2,1,0.924623,1.356801,0.974717,1.622875,0.478577,1.630999,0.358479,0.896034,0.558699,-568.3594
2,1,0.628826,1.061307,0.678357,1.369118,0.154222,1.413542,0.071067,0.753423,0.244184,-567.3828
2,1,0.414271,0.792436,0.525065,1.216387,0.282766,1.199044,-0.064051,0.584926,0.117149,-566.4063
2,1,0.486635,0.869586,0.616629,1.279579,0.492533,1.128935,0.055063,0.512093,0.19832,-565.4297
2,1,0.66819,1.089607,0.806792,1.600355,0.590208,1.324594,0.184901,0.716543,0.237919,-564.4531
2,1,0.798915,1.253054,0.969582,1.770654,0.534015,1.506754,0.228288,0.942758,0.25567,-563.4766
2,1,0.989662,1.386978,1.021857,1.830255,0.591742,1.49278,0.241947,1.029039,0.30353,-562.5
2,1,1.208842,1.560765,1.079645,2.001186,0.685508,1.515426,0.331153,1.164095,0.538542,-561.5234
2,1,1.064866,1.396115,0.909543,1.674737,0.461046,1.383834,0.300793,1.009933,0.507732,-560.5469
2,1,1.086973,1.406425,0.945119,1.552041,0.434272,1.387101,0.389985,0.968932,0.598935,-559.5703
2,1,1.162742,1.450844,1.035159,1.611209,0.470102,1.475234,0.466683,1.019966,0.600014,-558.5938
2,1,1.007645,1.29118,0.88879,1.481916,0.243226,1.294475,0.325808,0.800443,0.420517,-557.6172
2,1,0.890962,1.187865,0.813775,1.297748,0.223697,1.07717,0.289212,0.532567,0.243528,-556.6406
2,1,0.839621,1.098386,0.793358,1.179175,0.299413,0.972173,0.246155,0.42428,0.174709,-555.6641
2,1,0.835561,1.141837,0.822069,1.10301,0.42998,1.004534,0.279832,0.499708,0.267769,-554.6875
2,1,0.698892,1.04162,0.614207,1.042512,0.169412,1.00182,0.167717,0.526438,0.216792,-553.7109
2,1,0.432955,0.779739,0.376798,0.890595,-0.11715,0.809315,-0.103954,0.388612,0.0881630000000001,-552.7344
2,1,0.416894,0.842323,0.487072,0.947771,0.073145,0.927704,-0.089968,0.390783,0.219165,-551.7578
2,1,0.563446,1.013697,0.698242,1.052741,0.235337,1.089185,0.070482,0.510723,0.315979,-550.7813
2,1,0.767309,1.200578,0.905438,1.162207,0.63092,1.173101,0.318329,0.678994,0.520308,-549.8047
2,1,0.936519,1.343306,1.070454,1.236046,1.049442,1.227628,0.462596,0.820823,0.724774,-548.8281
2,1,0.999048,1.372851,1.116332,1.281998,1.178027,1.189343,0.419981,0.831139,0.763223,-547.8516
2,1,0.935691,1.28638,1.032131,1.288923,1.103289,1.162477,0.363534,0.720304,0.687925,-546.875
2,1,0.657018,1.032714,0.735011,1.071013,0.907325,0.904055,0.145463,0.427625,0.494615,-545.8984
2,1,0.419351,0.805478,0.479916,0.950821,0.833395,0.637715,-0.122265,0.15215,0.261063,-544.9219
2,1,0.291495,0.704366,0.45724,0.862504,0.7727,0.536903,-0.206719,-0.0422669999999999,-0.0175470000000001,-543.9453
2,1,0.159869,0.596172,0.282527,0.895384,0.516936,0.438216,-0.277932,-0.308718,-0.205963,-542.9688
2,1,0.0270540000000001,0.460238,0.192652,0.920282,0.208502,0.389639,-0.342835,-0.447694,-0.187055,-541.9922
2,1,0.233105,0.67799,0.478267,0.971603,0.352121,0.589222,0.019389,-0.177717,0.186496,-541.0156
2,1,0.311442,0.755487,0.566775,1.023968,0.552813,0.698341,0.147595,0.038352,0.461586,-540.0391
2,1,0.222946,0.699022,0.45877,0.982806,0.530661,0.553652,0.05431,-0.090583,0.441357,-539.0625
2,1,0.258906,0.757864,0.403984,0.869571,0.562187,0.466118,0.081805,-0.140399,0.420463,-538.0859
2,1,0.272306,0.721024,0.364992,0.776261,0.545126,0.442044,0.038511,-0.080854,0.380585,-537.1094
2,1,0.206707,0.602159,0.214557,0.596459,0.458226,0.364794,-0.1305,-0.151678,0.298033,-536.1328
2,1,0.257364,0.610064,0.265148,0.529762,0.473932,0.383589,-0.148042,-0.070217,0.39148,-535.1563
2,1,0.331069,0.665967,0.375662,0.596831,0.388404,0.535118,-0.030467,0.091968,0.373842,-534.1797
2,1,0.434224,0.828486,0.510133,0.790774,0.41438,0.734754,0.147866,0.234445,0.536516,-533.2031
2,1,0.725152,1.107642,0.78712,1.158177,0.611523,0.968367,0.367848,0.436865,0.714864,-532.2266
2,1,1.143027,1.466773,1.135288,1.617533,1.024019,1.374744,0.710174,0.796201,0.97311,-531.25
2,1,1.195938,1.476876,1.161529,1.60947,1.134227,1.36303,0.770958,0.728977,1.027812,-530.2734
2,1,1.26058,1.511246,1.253538,1.493085,1.247991,1.32014,0.774926,0.703193,1.020685,-529.2969
2,1,1.268464,1.478034,1.150853,1.304648,1.237378,1.177088,0.819681,0.727862,1.010737,-528.3203
2,1,0.899682,1.139821,0.80315,0.884117,0.956219,0.861442,0.509397,0.432533,0.719601,-527.3438
2,1,0.849739,1.143885,0.848959,0.854908,0.853551,0.918862,0.457584,0.364644,0.692383,-526.3672
2,1,0.968475,1.334426,1.020038,1.197806,0.810522,1.136104,0.561546,0.546042,0.796262,-525.3906
2,1,0.846184,1.277324,0.984786,1.244369,0.680528,1.087066,0.433318,0.48237,0.611146,-524.4141
2,1,0.748482,1.177808,0.910618,1.118996,0.756423,0.970749,0.370872,0.322511,0.411145,-523.4375
2,1,0.829132,1.215102,0.901286,1.166071,0.856583,0.9836,0.50569,0.243929,0.588368,-522.4609
2,1,0.862473,1.263063,0.9219,1.28556,0.916494,1.035597,0.472751,0.301369,0.690356,-521.4844
2,1,0.931824,1.299774,1.001362,1.364073,1.011511,1.060135,0.355346,0.440966,0.831988,-520.5078
2,1,1.114688,1.43584,1.085108,1.523833,1.118225,1.180341,0.479757,0.550534,0.914516,-519.5313
2,1,1.348124,1.613185,1.263216,1.706209,1.150711,1.411893,0.668449,0.797767,0.914539,-518.5547
2,1,1.517355,1.762882,1.428369,1.848753,1.061957,1.463446,0.662911,0.849832,0.978686,-517.5781
2,1,1.48543,1.739863,1.336506,1.82124,0.997099,1.311281,0.572934,0.735786,0.858364,-516.6016
2,1,1.337035,1.618176,1.267551,1.595372,1.205259,1.251164,0.534642,0.739955,0.810503,-515.625
2,1,1.207548,1.5203,1.236414,1.5512,1.282265,1.322304,0.439363,0.71596,0.638666,-514.6484
2,1,1.034632,1.340381,1.145087,1.240918,1.026884,1.074939,0.274627,0.494469,0.465559,-513.6719
2,1,0.96191,1.255926,1.119265,1.057632,0.801821,0.957169,0.324463,0.483716,0.508162,-512.6953
2,1,0.98882,1.26818,1.160486,1.121213,0.69026,1.01296,0.456451,0.5358,0.610961,-511.7188
2,1,0.998352,1.275335,1.127792,1.15163,0.634031,0.986921,0.505481,0.467488,0.582575,-510.7422
2,1,0.984241,1.275204,1.117683,1.143112,0.537499,0.90394,0.577134,0.431468,0.636993,-509.7656
2,1,0.885963,1.168051,0.977982,1.088253,0.395845,0.891529,0.494919,0.405885,0.589501,-508.7891
2,1,0.718373,1.007673,0.830473,0.911836,0.350698,0.757679,0.370342,0.302131,0.443986,-507.8125
2,1,0.778841,1.03753,0.968997,0.910956,0.421935,0.827211,0.440351,0.355112,0.473677,-506.8359
2,1,0.728613,1.0609,0.997648,1.267533,0.3185,0.991497,0.322878,0.449661,0.308336,-505.8594
2,1,0.714203,1.129551,0.94949,1.483294,0.465158,1.127651,0.315263,0.567392,0.286576,-504.8828
2,1,0.749604,1.182885,0.928043,1.429099,0.632707,1.195825,0.331093,0.580336,0.312235,-503.9063
2,1,0.738153,1.121593,0.806917,1.27693,0.578438,1.109472,0.207736,0.496805,0.199891,-502.9297
2,1,0.721739,0.994305,0.725945,1.071428,0.540216,0.879205,0.116674,0.20229,0.058109,-501.9531
2,1,0.833229,1.072809,0.825428,1.101384,0.601157,0.820183,0.207587,0.100596,0.070773,-500.9766
2,1,1.044702,1.234293,0.949631,1.371271,0.714576,1.00405,0.260468,0.236003,0.106422,-500.0
2,1,1.317502,1.436246,1.123401,1.57319,0.909702,1.221637,0.437757,0.430167,0.336598,-499.0234
2,1,1.344547,1.475197,1.153135,1.627328,0.955375,1.323599,0.454989,0.553502,0.412889,-498.0469
2,1,1.324214,1.511553,1.150432,1.632676,0.98696,1.318881,0.446524,0.620837,0.375802,-497.0703
2,1,1.247718,1.495251,1.205142,1.49882,0.940493,1.189824,0.557922,0.543923,0.519047,-496.0938
2,1,1.069532,1.35003,1.235667,1.302165,0.599848,1.070536,0.506346,0.45348,0.495151,-495.1172
2,1,1.000486,1.264365,1.191643,1.208824,0.481608,1.010303,0.373529,0.477714,0.478009,-494.1406
2,1,0.935997,1.171586,1.086453,1.144312,0.499675,0.962354,0.264288,0.52788,0.572215,-493.1641
2,1,1.108742,1.40285,1.277486,1.282574,0.884995,1.147341,0.458216,0.695953,0.848684,-492.1875
2,1,1.327922,1.625762,1.478078,1.441828,1.184457,1.265322,0.769674,0.780593,1.225521,-491.2109
2,1,1.527616,1.713924,1.55581,1.59406,1.139592,1.387685,0.788931,0.810955,1.407885,-490.2344
2,1,1.602675,1.694985,1.507382,1.638409,1.105422,1.379957,0.714077,0.752486,1.418265,-489.2578
2,1,1.568661,1.650567,1.406942,1.613456,1.046825,1.302206,0.707805,0.653423,1.361179,-488.2813
2,1,1.474226,1.523854,1.299369,1.545478,0.930393,1.20807,0.655526,0.54509,1.345929,-487.3047
2,1,1.369304,1.393675,1.224896,1.388956,0.627613,1.111993,0.549112,0.473134,1.189464,-486.3281
2,1,1.176863,1.269599,1.069903,1.173707,0.438918,1.038101,0.436833,0.420669,0.920757,-485.3516
2,1,0.799196,0.960396,0.784628,0.852239,0.275747,0.833036,0.270338,0.279861,0.651969,-484.375
2,1,0.509166,0.659004,0.524618,0.521563,0.104636,0.495986,0.0554230000000001,0.052025,0.360551,-483.3984
2,1,0.372274,0.540158,0.411042,0.241584,0.11904,0.290918,-0.044895,-0.033178,0.30264,-482.4219
2,1,0.285261,0.471197,0.375083,0.217435,-0.0018459999999998,0.289531,-0.154014,-0.042119,0.35967,-481.4453
2,1,0.332501,0.505938,0.463714,0.441546,-0.064693,0.52195,-0.131972,0.099655,0.347255,-480.4688
2,1,0.61256,0.7745,0.732873,0.759367,0.315178,0.784518,0.230041,0.245889,0.575246,-479.4922
2,1,0.795894,0.971231,0.939062,0.993603,0.695164,0.814216,0.562288,0.249987,0.887159,-478.5156
2,1,0.846534,1.076651,1.070038,1.007857,0.817896,0.834221,0.772767,0.374576,1.14006,-477.5391
2,1,1.058072,1.283718,1.288873,1.050455,1.023033,0.966626,0.987448,0.510057,1.37927,-476.5625
2,1,1.266081,1.402657,1.437893,1.110169,1.210657,1.04548,1.065516,0.58823,1.502526,-475.5859
2,1,1.306828,1.442296,1.43497,1.174891,1.236686,1.084859,1.093836,0.66708,1.439952,-474.6094
2,1,1.184343,1.267312,1.17089,1.069756,1.165991,0.918306,0.916139,0.467832,1.132544,-473.6328
2,1,1.042686,1.102974,1.006701,1.018326,1.126066,0.833267,0.667675,0.409364,0.940594,-472.6563
2,1,0.989611,1.080638,0.954251,1.029054,0.990065,0.802294,0.549594,0.326286,0.801596,-471.6797
2,1,1.04518,1.142671,1.007579,1.12022,0.895404,0.880197,0.552401,0.418823,0.750915,-470.7031
2,1,1.056503,1.105602,1.028296,1.213351,0.833787,0.953928,0.493666,0.486736,0.829832,-469.7266
2,1,1.082122,1.115972,1.063734,1.375982,0.684651,1.068517,0.392484,0.594493,0.86233,-468.75
2,1,1.072712,1.142015,1.054122,1.40678,0.597214,1.185341,0.337917,0.688824,0.802811,-467.7734
2,1,1.039107,1.113729,1.010139,1.351521,0.704862,1.152065,0.436681,0.657926,0.748091,-466.7969
2,1,1.005343,1.11111,0.952675,1.282686,0.765009,1.035766,0.445254,0.501465,0.803163,-465.8203
2,1,0.815144,0.924587,0.738549,1.144658,0.378469,0.879902,0.240816,0.312436,0.70616,-464.8438
2,1,0.641265,0.757749,0.58374,1.088971,0.125115,0.863231,0.020693,0.321619,0.468171,-463.8672
2,1,0.528224,0.695614,0.664375,1.086274,0.172957,0.902748,0.034645,0.494077,0.462375,-462.8906
2,1,0.540149,0.856881,0.871964,1.126065,0.390694,1.031932,0.298531,0.668948,0.581313,-461.9141
2,1,0.673878,0.958659,0.951843,1.02933,0.618481,1.077941,0.48112,0.767436,0.862864,-460.9375
2,1,0.648576,0.84094,0.901192,0.952544,0.574337,1.033568,0.507315,0.680276,0.821437,-459.9609
2,1,0.414016,0.622001,0.739674,0.829515,0.394297,0.861265,0.35344,0.490246,0.599831,-458.9844
2,1,0.391253,0.556992,0.670257,0.71977,0.5383,0.673337,0.401471,0.364757,0.624188,-458.0078
2,1,0.451879,0.49641,0.525295,0.556762,0.601856,0.530372,0.511818,0.164366,0.643283,-457.0313
2,1,0.477111,0.508501,0.520273,0.5412,0.695301,0.471774,0.498625,0.118533,0.543103,-456.0547
2,1,0.517007,0.614044,0.661954,0.793741,0.645655,0.661528,0.381221,0.28003,0.51456,-455.0781
2,1,0.780224,0.838633,0.947999,1.099644,0.76953,1.002269,0.514301,0.539081,0.757829,-454.1016
2,1,1.026145,1.060375,1.115191,1.394957,0.989387,1.185678,0.694786,0.663469,0.959073,-453.125
2,1,1.148835,1.180267,1.18859,1.503475,1.167805,1.36759,0.857505,0.766261,1.10826,-452.1484
2,1,1.353325,1.370447,1.370345,1.615947,1.327424,1.593361,1.057261,0.999812,1.269019,-451.1719
2,1,1.333285,1.34075,1.289866,1.570607,1.273459,1.411037,1.09166,0.85398,1.198428,-450.1953
2,1,1.16062,1.13552,1.059958,1.337385,1.024269,1.143259,0.94396,0.64981,1.097325,-449.2188
2,1,0.932458,0.939077,0.92404,1.222945,0.745564,0.942261,0.65634,0.490691,1.024121,-448.2422
2,1,0.960518,1.025207,1.070544,1.39764,0.759644,1.105675,0.661585,0.624049,1.099267,-447.2656
2,1,1.110533,1.22934,1.295312,1.595584,0.735968,1.343,0.959473,0.875415,1.269718,-446.2891
2,1,1.062501,1.190595,1.299044,1.542499,0.628584,1.32728,0.987451,0.943091,1.380778,-445.3125
2,1,1.00496,1.065194,1.115819,1.325744,0.604989,1.207012,0.756032,0.896487,1.256024,-444.3359
2,1,0.807066,0.85523,0.872002,1.119594,0.449605,1.101468,0.45763,0.775802,0.971399,-443.3594
2,1,0.661565,0.765466,0.867517,1.073701,0.413801,1.135,0.32705,0.779667,0.86102,-442.3828
2,1,0.62183,0.717994,0.887331,1.074777,0.509067,1.092629,0.287003,0.712769,0.772404,-441.4063
2,1,0.459656,0.537587,0.679589,0.895457,0.403176,0.840728,0.238255,0.518472,0.624364,-440.4297
2,1,0.374283,0.446305,0.611614,0.742394,0.390203,0.67855,0.232496,0.447281,0.744542,-439.4531
2,1,0.385575,0.493375,0.720706,0.663671,0.645074,0.683745,0.353786,0.434364,0.96255,-438.4766
2,1,0.300567,0.467818,0.715113,0.572083,0.774689,0.717462,0.405224,0.460695,0.918553,-437.5
2,1,0.377204,0.52669,0.746498,0.609385,0.830994,0.763477,0.39739,0.492382,0.814248,-436.5234
2,1,0.484609,0.625365,0.798813,0.733509,0.890766,0.84342,0.35376,0.518746,0.804794,-435.5469
2,1,0.533996,0.663198,0.826554,0.802843,0.826092,0.879286,0.41112,0.515831,0.855555,-434.5703
2,1,0.537433,0.70031,0.86208,0.849452,0.674685,0.916876,0.44964,0.493211,0.912021,-433.5938
2,1,0.529065,0.679154,0.813539,0.889078,0.621516,0.910258,0.394742,0.543631,0.851977,-432.6172
2,1,0.31321,0.385249,0.517102,0.698997,0.450154,0.639597,0.169784,0.368054,0.569167,-431.6406
2,1,0.219686,0.283204,0.43497,0.752695,0.302893,0.67374,0.026432,0.383727,0.416306,-430.6641
2,1,0.483692,0.56875,0.749721,1.058893,0.577766,1.001953,0.214171,0.654795,0.723998,-429.6875
2,1,0.643073,0.762126,0.96592,1.034097,0.683454,1.076306,0.389716,0.762642,0.77767,-428.7109
2,1,0.799389,0.935955,1.048975,1.103906,0.667301,1.142624,0.506832,0.896951,0.832423,-427.7344
2,1,1.033045,1.155432,1.147375,1.222235,0.824447,1.296887,0.652776,1.004779,1.079095,-426.7578
2,1,1.284673,1.414219,1.370877,1.284702,1.163455,1.397876,0.953324,1.016977,1.433582,-425.7813
2,1,1.386992,1.617117,1.535462,1.375723,1.525987,1.543266,1.190641,1.118575,1.579751,-424.8047
2,1,1.369142,1.615298,1.562421,1.382988,1.482217,1.608647,1.191024,1.21864,1.421893,-423.8281
2,1,1.358855,1.547573,1.570449,1.291989,1.35423,1.552889,1.128841,1.118168,1.249056,-422.8516
2,1,1.341577,1.446704,1.529382,1.21594,1.470386,1.523059,1.075759,1.109585,1.273671,-421.875
2,1,1.484595,1.58847,1.616195,1.380238,1.573821,1.730759,1.193202,1.284604,1.452046,-420.8984
2,1,1.713668,1.907356,1.928186,1.725884,1.5772,2.095151,1.375046,1.584191,1.669192,-419.9219
2,1,1.789886,2.033495,2.094167,1.984008,1.552779,2.248165,1.432159,1.633743,1.619084,-418.9453
2,1,1.890496,2.161623,2.166706,2.28575,1.76591,2.410988,1.617825,1.790812,1.70216,-417.9688
2,1,2.092725,2.378835,2.325087,2.534816,1.998325,2.675909,1.755248,2.011366,1.820304,-416.9922
2,1,2.07915,2.367671,2.299946,2.494902,2.008202,2.60543,1.679722,1.948184,1.862857,-416.0156
2,1,2.01875,2.320269,2.241248,2.50947,2.115118,2.59663,1.695739,1.912509,1.865529,-415.0391
2,1,1.839822,2.125794,2.03189,2.429432,2.211565,2.418981,1.52955,1.700014,1.6607,-414.0625
2,1,1.590158,1.832883,1.743666,2.2454,2.141803,2.16749,1.308533,1.465726,1.429073,-413.0859
2,1,1.483197,1.725765,1.581723,2.103997,2.083063,2.033841,1.243355,1.31556,1.316507,-412.1094
2,1,1.460023,1.694589,1.570704,1.907927,2.17632,1.888581,1.246592,1.153419,1.272825,-411.1328
2,1,1.33811,1.586378,1.458649,1.762868,2.110143,1.671356,1.072182,0.972898,1.074422,-410.1563
2,1,1.239528,1.457722,1.388006,1.585953,1.94271,1.461944,0.952416,0.866272,0.954555,-409.1797
2,1,1.032091,1.181076,1.196375,1.36396,1.679317,1.197441,0.778297,0.705097,0.757773,-408.2031
2,1,0.890063,1.007907,0.955872,1.097992,1.603103,0.974856,0.647841,0.554419,0.635811,-407.2266
2,1,0.724806,0.808017,0.786735,0.884427,1.425283,0.84511,0.655285,0.505602,0.60546,-406.25
2,1,0.60366,0.699784,0.730757,0.916149,1.312892,0.789082,0.642221,0.481491,0.719985,-405.2734
2,1,0.782684,0.882396,0.905677,1.068962,1.419691,0.992748,0.746785,0.57698,0.949471,-404.2969
2,1,0.933801,0.999048,1.066165,1.143544,1.60191,1.176336,0.817057,0.66411,1.125086,-403.3203
2,1,1.038084,1.121603,1.148163,1.300167,1.611555,1.332406,0.851388,0.791263,1.278034,-402.3438
2,1,1.361054,1.455747,1.388043,1.79439,1.746069,1.786164,1.042665,1.237575,1.427005,-401.3672
2,1,1.433046,1.471876,1.424341,1.925865,1.715562,1.863991,0.930569,1.311124,1.384029,-400.3906
2,1,1.311376,1.351234,1.309357,1.78526,1.639346,1.619045,0.761701,1.099829,1.212967,-399.4141
2,1,1.379004,1.373403,1.282878,1.627036,1.724634,1.4957,0.772871,1.027582,1.208537,-398.4375
2,1,1.434204,1.387245,1.23585,1.586618,1.680948,1.413039,0.837355,1.01484,1.311933,-397.4609
2,1,1.381717,1.343665,1.135407,1.563339,1.601419,1.337311,0.696852,0.930297,1.311632,-396.4844
2,1,1.40413,1.420771,1.206245,1.75794,1.624518,1.46285,0.619411,0.978384,1.239293,-395.5078
2,1,1.316864,1.365139,1.132937,1.806177,1.541454,1.411449,0.478645,0.844753,1.008568,-394.5313
2,1,1.324393,1.39249,1.134951,1.74109,1.653456,1.399769,0.512109,0.914955,0.927332,-393.5547
2,1,1.415058,1.542152,1.271303,1.831885,1.775377,1.456531,0.641008,1.118634,1.0056,-392.5781
2,1,1.531668,1.697931,1.401839,2.030657,1.972755,1.546855,0.864158,1.167369,1.235048,-391.6016
2,1,1.551687,1.733782,1.479002,2.013518,2.074397,1.620803,1.032259,1.164857,1.3289,-390.625
2,1,1.347896,1.540473,1.331732,1.70418,1.918854,1.478704,0.9634,1.03502,1.128415,-389.6484
2,1,1.396758,1.562296,1.346771,1.73791,1.851281,1.490525,0.827046,1.05667,1.183447,-388.6719
2,1,1.474458,1.647791,1.49093,1.957952,1.794209,1.663583,0.745809,1.200178,1.31364,-387.6953
2,1,1.376832,1.566691,1.494655,1.928463,1.678545,1.690972,0.684038,1.255809,1.33862,-386.7188
2,1,1.370605,1.578654,1.581759,1.863702,1.679658,1.604648,0.797346,1.244854,1.342115,-385.7422
2,1,1.414016,1.64498,1.624166,1.867132,1.760798,1.533223,0.940448,1.115701,1.311273,-384.7656
2,1,1.37144,1.597945,1.502461,1.924252,1.76815,1.53683,0.894705,1.094372,1.240906,-383.7891
2,1,1.22806,1.499369,1.368331,1.765726,1.671171,1.440897,0.738901,0.983147,1.068825,-382.8125
2,1,1.308388,1.577544,1.418984,1.859255,1.759447,1.57351,0.770235,1.10596,1.176966,-381.8359
2,1,1.513588,1.712949,1.549237,2.015415,1.840948,1.693257,0.855684,1.261846,1.253509,-380.8594
2,1,1.555289,1.691546,1.504594,1.996522,1.669754,1.687307,0.782256,1.164351,1.071192,-379.8828
2,1,1.489755,1.610578,1.419648,1.879404,1.410867,1.603688,0.607151,1.091762,0.958081,-378.9063
2,1,1.483954,1.589169,1.348173,1.86269,1.332224,1.622505,0.547079,1.129782,1.036151,-377.9297
2,1,1.393027,1.502981,1.272024,1.807529,1.131874,1.58715,0.597171,1.142933,1.112072,-376.9531
2,1,1.221468,1.380229,1.17166,1.671666,0.974526,1.492185,0.576668,1.008886,0.945964,-375.9766
2,1,1.069094,1.281081,1.067436,1.573007,0.928309,1.428511,0.545288,0.956851,0.734081,-375.0
2,1,1.052512,1.305187,1.092174,1.463228,0.890281,1.335518,0.60139,0.884294,0.684939,-374.0234
2,1,1.067669,1.318036,1.163591,1.280746,0.904553,1.165021,0.604107,0.719012,0.688557,-373.0469
2,1,0.878766,1.161551,1.04101,1.088994,0.875222,1.022262,0.395457,0.561903,0.599509,-372.0703
2,1,0.952648,1.306006,1.141252,1.23523,0.919313,1.173693,0.509907,0.713712,0.793021,-371.0938
2,1,1.254102,1.586011,1.39311,1.536126,0.937302,1.559942,0.871679,1.063448,1.101619,-370.1172
2,1,1.290074,1.513764,1.346757,1.645508,0.826034,1.50369,0.831354,1.036173,1.086957,-369.1406
2,1,1.224853,1.426028,1.272764,1.709776,0.825646,1.448251,0.716804,0.948551,1.122067,-368.1641
2,1,1.192128,1.333366,1.073063,1.699566,0.624695,1.373036,0.593464,0.788565,1.129878,-367.1875
2,1,1.118364,1.333928,1.002803,1.770587,0.368217,1.360182,0.488198,0.709035,0.987035,-366.2109
2,1,1.193733,1.487354,1.149423,1.796513,0.554368,1.473485,0.612846,0.794974,1.045031,-365.2344
2,1,1.089172,1.349443,1.05001,1.617868,0.461813,1.345965,0.400168,0.72424,0.952877,-364.2578
2,1,0.928292,1.221375,0.942261,1.505797,0.214012,1.240344,0.221972,0.627214,0.699598,-363.2813
2,1,1.010338,1.346229,1.007873,1.627732,0.294509,1.335777,0.357227,0.639092,0.668546,-362.3047
2,1,1.115202,1.409113,1.148166,1.720638,0.537385,1.442645,0.505067,0.768534,0.777926,-361.3281
2,1,1.238315,1.45671,1.394967,1.83503,0.680592,1.519424,0.652596,0.981252,0.925084,-360.3516
2,1,1.386699,1.592527,1.487685,1.831233,0.825933,1.529942,0.770094,1.047398,0.866932,-359.375
2,1,1.502605,1.704557,1.495828,1.840011,0.859012,1.543522,0.718412,0.971082,0.781433,-358.3984
2,1,1.494588,1.704549,1.588177,1.843539,0.808524,1.589688,0.727256,0.979836,0.89895,-357.4219
2,1,1.527206,1.744929,1.638,1.867925,0.749758,1.710994,0.78649,1.072259,0.945496,-356.4453
2,1,1.56421,1.781005,1.580667,1.868545,0.685953,1.739896,0.707728,1.071483,0.981052,-355.4688
2,1,1.660127,1.870171,1.548296,1.945883,0.704895,1.810749,0.677644,1.129253,0.971321,-354.4922
2,1,1.672887,1.898718,1.51582,2.032624,0.658879,1.873649,0.663506,1.192427,0.821186,-353.5156
2,1,1.734687,1.970716,1.579489,2.123534,0.700596,1.857624,0.643841,1.174703,0.776632,-352.5391
2,1,1.607673,1.800316,1.513957,1.922938,0.610027,1.682261,0.539951,1.043349,0.659778,-351.5625
2,1,1.303403,1.491022,1.218011,1.626112,0.304526,1.407794,0.276555,0.816866,0.434215,-350.5859
2,1,1.139044,1.331854,1.006349,1.380389,0.351397,1.162908,0.179577,0.599806,0.361924,-349.6094
2,1,1.217252,1.396393,1.103516,1.333263,0.543496,1.164569,0.307645,0.635015,0.48013,-348.6328
2,1,1.110636,1.265076,1.085828,1.244113,0.418678,1.074127,0.193218,0.660848,0.308339,-347.6563
2,1,1.136159,1.286023,1.072568,1.44584,0.389228,1.140299,0.13719,0.786578,0.287743,-346.6797
2,1,1.130141,1.296399,1.066576,1.561805,0.311827,1.231724,0.103728,0.810404,0.242381,-345.7031
2,1,1.217247,1.373075,1.142354,1.562469,0.389805,1.28739,0.136634,0.912061,0.248783,-344.7266
2,1,1.399776,1.526252,1.25816,1.775865,0.626592,1.368237,0.367866,1.083791,0.385734,-343.75
2,1,1.449957,1.592235,1.28573,2.009815,0.602041,1.562655,0.390727,1.053324,0.452554,-342.7734
2,1,1.471279,1.675391,1.343747,2.05327,0.530693,1.615275,0.417052,0.942374,0.490121,-341.7969
2,1,1.425995,1.687535,1.297808,1.916598,0.643313,1.497652,0.443608,0.828281,0.371222,-340.8203
2,1,1.456131,1.714516,1.342719,1.985401,0.86881,1.510101,0.507392,0.900285,0.455595,-339.8438
2,1,1.621223,1.857292,1.497031,2.225569,1.106811,1.779659,0.644158,1.128669,0.687604,-338.8672
2,1,1.7637,1.977742,1.686793,2.268669,1.25759,1.885237,0.802508,1.258715,0.923827,-337.8906
2,1,1.733759,1.919783,1.704904,2.097808,1.082803,1.750855,0.858219,1.27824,0.957171,-336.9141
2,1,1.609134,1.709211,1.500605,1.780475,0.871122,1.522589,0.750213,1.117536,0.827993,-335.9375
2,1,1.565924,1.59025,1.401468,1.545144,0.713732,1.452949,0.624199,0.96177,0.675919,-334.9609
2,1,1.604297,1.689392,1.5133,1.583761,0.754818,1.502069,0.777874,1.019246,0.7075,-333.9844
2,1,1.435417,1.662409,1.485976,1.52386,0.673228,1.513454,0.692808,1.114755,0.560599,-333.0078
2,1,1.207682,1.451457,1.294965,1.358036,0.482392,1.437946,0.375367,1.078447,0.315251,-332.0313
2,1,1.211667,1.487321,1.277917,1.325581,0.437966,1.386371,0.239012,1.030273,0.246963,-331.0547
2,1,1.273539,1.557938,1.334749,1.499382,0.441474,1.539483,0.269659,1.096096,0.128109,-330.0781
2,1,1.18,1.389597,1.186331,1.414868,0.368948,1.53391,0.179816,1.049557,0.005831,-329.1016
2,1,1.160139,1.305091,1.066676,1.383254,0.361656,1.397066,0.101285,0.899294,0.105118,-328.125
2,1,1.398596,1.539553,1.248076,1.602633,0.669998,1.512848,0.358913,0.992751,0.449672,-327.1484
2,1,1.571958,1.718558,1.393298,1.780333,0.911988,1.632182,0.593206,1.062539,0.673091,-326.1719
2,1,1.661458,1.831437,1.509203,1.838941,1.074418,1.717309,0.764326,1.183829,0.792534,-325.1953
2,1,1.686295,1.915744,1.61886,1.842641,1.195847,1.814131,0.836346,1.316051,0.918368,-324.2188
2,1,1.613459,1.866843,1.606698,1.726442,1.175078,1.733234,0.810678,1.284755,1.004017,-323.2422
2,1,1.48156,1.759775,1.534682,1.722098,0.97004,1.669125,0.686273,1.283581,0.928778,-322.2656
2,1,1.364013,1.672263,1.507427,1.649313,0.755263,1.619797,0.549637,1.241825,0.617637,-321.2891
2,1,1.471778,1.764184,1.552574,1.765715,0.727871,1.749514,0.591371,1.276063,0.547806,-320.3125
2,1,1.391468,1.673861,1.417327,1.802657,0.70164,1.768278,0.562693,1.280139,0.580717,-319.3359
2,1,1.115031,1.425749,1.304936,1.676302,0.657607,1.673244,0.484966,1.263498,0.509623,-318.3594
2,1,0.916617,1.199762,1.150336,1.505321,0.582338,1.400347,0.395696,1.038495,0.457569,-317.3828
2,1,0.835113,1.098871,1.098949,1.440994,0.384883,1.181342,0.423427,0.70158,0.487904,-316.4063
2,1,1.015268,1.330139,1.283872,1.817927,0.5438,1.376106,0.642806,0.828554,0.671234,-315.4297
2,1,0.986803,1.335411,1.178851,1.95969,0.496156,1.411358,0.587076,0.894381,0.622176,-314.4531
2,1,0.806892,1.159081,0.983058,1.736749,0.303376,1.297093,0.377028,0.743042,0.502486,-313.4766
2,1,0.96799,1.316065,1.185491,1.775803,0.490971,1.42941,0.528754,0.873397,0.743571,-312.5
2,1,1.290185,1.58079,1.46924,1.930832,0.922762,1.645675,0.835094,1.106454,1.042115,-311.5234
2,1,1.43936,1.694439,1.559102,1.954274,1.004411,1.789497,0.902828,1.132749,1.139904,-310.5469
2,1,1.584454,1.788547,1.562826,1.960096,1.076754,1.857221,0.893516,1.170526,1.182053,-309.5703
2,1,1.834614,1.952977,1.69816,1.954187,1.21123,1.845212,0.906242,1.207652,1.144465,-308.5938
2,1,1.997732,1.979419,1.72177,1.838836,1.157273,1.732441,0.939966,1.190194,1.155998,-307.6172
2,1,2.043644,2.036376,1.757395,1.940763,1.385586,1.800269,1.072866,1.294309,1.314121,-306.6406
2,1,1.897253,2.008438,1.727298,1.99157,1.525506,1.830725,1.059176,1.2325,1.225335,-305.6641
2,1,1.617209,1.802179,1.489555,1.64219,1.337726,1.557701,0.812332,0.914924,0.935111,-304.6875
2,1,1.465634,1.612079,1.337894,1.408802,1.009196,1.324043,0.717177,0.632177,0.67214,-303.7109
2,1,1.33982,1.417932,1.170219,1.231227,0.719693,1.232144,0.659578,0.488519,0.623951,-302.7344
2,1,1.260367,1.328478,1.09359,1.199554,0.721083,1.225136,0.598777,0.457959,0.693428,-301.7578
2,1,1.413089,1.502319,1.250998,1.26965,0.953854,1.294188,0.728149,0.583916,0.884784,-300.7813
2,1,1.477021,1.580432,1.342363,1.297323,1.084381,1.33805,0.904394,0.688477,0.953011,-299.8047
2,1,1.274399,1.396433,1.105943,1.184875,0.99556,1.221603,0.803186,0.530867,0.829107,-298.8281
2,1,1.079288,1.221127,1.038472,1.024107,0.852959,1.100129,0.653778,0.449094,0.789126,-297.8516
2,1,1.082956,1.259937,1.125665,1.09913,0.902078,1.167538,0.759563,0.547369,0.867975,-296.875
2,1,1.086993,1.301387,1.128807,1.172208,1.005596,1.11642,0.868171,0.523219,0.843053,-295.8984
2,1,0.807139,1.065584,0.90868,1.097046,0.738829,0.915826,0.61564,0.280272,0.570607,-294.9219
2,1,0.506172,0.806899,0.744436,0.950724,0.444501,0.716059,0.377919,0.111925,0.378724,-293.9453
2,1,0.596529,0.859698,0.79714,0.927051,0.463405,0.68611,0.386426,0.136011,0.473378,-292.9688
2,1,1.018026,1.262988,1.172901,1.193977,0.847473,0.963905,0.67925,0.416115,0.958103,-291.9922
2,1,1.373745,1.601006,1.409358,1.471252,1.058394,1.238564,0.974239,0.584731,1.335615,-291.0156
2,1,1.486272,1.66668,1.426704,1.471085,1.006114,1.240306,1.095827,0.586299,1.461672,-290.0391
2,1,1.54429,1.687541,1.49799,1.334313,0.959972,1.185282,1.113069,0.621235,1.500938,-289.0625
2,1,1.559518,1.714553,1.584366,1.209875,1.005274,1.200485,1.115518,0.607229,1.38203,-288.0859
2,1,1.30601,1.430062,1.289573,0.916671,0.782099,0.990929,0.901801,0.444659,1.132274,-287.1094
2,1,1.326875,1.445235,1.261572,0.93968,0.76971,1.004546,0.919381,0.464389,1.055566,-286.1328
2,1,1.500882,1.748242,1.541395,1.272132,1.025745,1.365222,1.072346,0.789613,1.12414,-285.1563
2,1,1.543062,1.792823,1.577403,1.31146,1.044503,1.456985,1.070577,0.916288,1.11585,-284.1797
2,1,1.368238,1.528043,1.399172,1.098182,0.916748,1.211785,0.956574,0.719303,0.890903,-283.2031
2,1,1.222734,1.415471,1.291498,1.176344,0.704137,1.162744,0.81071,0.657149,0.627517,-282.2266
2,1,1.097384,1.334953,1.222928,1.117223,0.576633,1.167625,0.683916,0.607056,0.480015,-281.25
2,1,0.936021,1.213137,1.152574,0.962944,0.708747,1.087202,0.65391,0.522762,0.428261,-280.2734
2,1,0.91572,1.13222,1.129524,0.956607,0.751393,1.059815,0.632697,0.485563,0.450279,-279.2969
2,1,1.125328,1.289731,1.320115,1.143724,0.870225,1.22608,0.758182,0.665278,0.529874,-278.3203
2,1,1.208174,1.402677,1.451805,1.316553,1.033315,1.409598,0.922496,0.770735,0.634347,-277.3438
2,1,1.041562,1.323918,1.339623,1.2215,0.870105,1.385342,0.843404,0.721741,0.57162,-276.3672
2,1,0.925844,1.208371,1.227689,1.107004,0.753977,1.27367,0.705972,0.604352,0.530867,-275.3906
2,1,1.026279,1.300741,1.295254,1.293271,0.78783,1.333633,0.61241,0.585479,0.506764,-274.4141
2,1,1.07824,1.419183,1.299049,1.590072,0.777686,1.454623,0.557918,0.646696,0.470308,-273.4375
2,1,0.895854,1.233412,1.233341,1.448344,0.630475,1.288008,0.484869,0.543379,0.295586,-272.4609
2,1,0.680115,0.989157,1.065413,1.088293,0.277901,1.062204,0.335456,0.405489,0.192884,-271.4844
2,1,0.671634,0.961444,1.029465,1.044058,0.30275,1.113552,0.259472,0.464492,0.295765,-270.5078
2,1,0.484085,0.779529,0.784789,0.862201,0.245121,0.895725,0.022681,0.191299,0.122475,-269.5313
2,1,0.312059,0.580127,0.566627,0.671141,0.0039659999999999,0.646021,-0.235484,-0.092526,-0.054882,-268.5547
2,1,0.410314,0.629073,0.631252,0.800568,-0.013005,0.67984,-0.199132,-0.025582,0.076984,-267.5781
2,1,0.586911,0.833172,0.720148,1.043553,0.118225,0.894836,0.023074,0.185568,0.421406,-266.6016
